Memory Length,4000,
Trigger Level,2.56900e+00,
Source,CH2,
Probe,1.0X,
Vertical Units,V,
Vertical Scale,5.00000e-02,
Vertical Position,-3.44000e-01,
Horizontal Units,S,
Horizontal Scale,5.00000e-01,
Horizontal Position,6.1200000e+00,
Horizontal Mode,Main,
Sampling Period,2.00000e-03,
Firmware,V1.14,
Time, ,
Mode,Detail,
Waveform Data,
2.120000e+0,3.66e-1,
2.122000e+0,3.66e-1,
2.124000e+0,3.66e-1,
2.126000e+0,3.68e-1,
2.128000e+0,3.68e-1,
2.130000e+0,3.70e-1,
2.132000e+0,3.70e-1,
2.134000e+0,3.70e-1,
2.136000e+0,3.70e-1,
2.138000e+0,3.70e-1,
2.140000e+0,3.70e-1,
2.142000e+0,3.68e-1,
2.144000e+0,3.68e-1,
2.146000e+0,3.68e-1,
2.148000e+0,3.68e-1,
2.150000e+0,3.68e-1,
2.152000e+0,3.68e-1,
2.154000e+0,3.68e-1,
2.156000e+0,3.68e-1,
2.158000e+0,3.70e-1,
2.160000e+0,3.70e-1,
2.162000e+0,3.68e-1,
2.164000e+0,3.68e-1,
2.166000e+0,3.70e-1,
2.168000e+0,3.70e-1,
2.170000e+0,3.68e-1,
2.172000e+0,3.68e-1,
2.174000e+0,3.68e-1,
2.176000e+0,3.68e-1,
2.178000e+0,3.70e-1,
2.180000e+0,3.70e-1,
2.182000e+0,3.70e-1,
2.184000e+0,3.70e-1,
2.186000e+0,3.68e-1,
2.188000e+0,3.68e-1,
2.190000e+0,3.70e-1,
2.192000e+0,3.70e-1,
2.194000e+0,3.68e-1,
2.196000e+0,3.68e-1,
2.198000e+0,3.68e-1,
2.200000e+0,3.68e-1,
2.202000e+0,3.68e-1,
2.204000e+0,3.68e-1,
2.206000e+0,3.66e-1,
2.208000e+0,3.66e-1,
2.210000e+0,3.68e-1,
2.212000e+0,3.68e-1,
2.214000e+0,3.66e-1,
2.216000e+0,3.66e-1,
2.218000e+0,3.66e-1,
2.220000e+0,3.66e-1,
2.222000e+0,3.66e-1,
2.224000e+0,3.66e-1,
2.226000e+0,3.68e-1,
2.228000e+0,3.68e-1,
2.230000e+0,3.68e-1,
2.232000e+0,3.68e-1,
2.234000e+0,3.68e-1,
2.236000e+0,3.68e-1,
2.238000e+0,3.66e-1,
2.240000e+0,3.66e-1,
2.242000e+0,3.66e-1,
2.244000e+0,3.66e-1,
2.246000e+0,3.70e-1,
2.248000e+0,3.70e-1,
2.250000e+0,3.68e-1,
2.252000e+0,3.68e-1,
2.254000e+0,3.66e-1,
2.256000e+0,3.66e-1,
2.258000e+0,3.68e-1,
2.260000e+0,3.68e-1,
2.262000e+0,3.68e-1,
2.264000e+0,3.68e-1,
2.266000e+0,3.66e-1,
2.268000e+0,3.66e-1,
2.270000e+0,3.66e-1,
2.272000e+0,3.66e-1,
2.274000e+0,3.66e-1,
2.276000e+0,3.66e-1,
2.278000e+0,3.64e-1,
2.280000e+0,3.64e-1,
2.282000e+0,3.66e-1,
2.284000e+0,3.66e-1,
2.286000e+0,3.68e-1,
2.288000e+0,3.68e-1,
2.290000e+0,3.66e-1,
2.292000e+0,3.66e-1,
2.294000e+0,3.64e-1,
2.296000e+0,3.64e-1,
2.298000e+0,3.66e-1,
2.300000e+0,3.66e-1,
2.302000e+0,3.64e-1,
2.304000e+0,3.64e-1,
2.306000e+0,3.68e-1,
2.308000e+0,3.68e-1,
2.310000e+0,3.66e-1,
2.312000e+0,3.66e-1,
2.314000e+0,3.64e-1,
2.316000e+0,3.64e-1,
2.318000e+0,3.62e-1,
2.320000e+0,3.62e-1,
2.322000e+0,3.64e-1,
2.324000e+0,3.64e-1,
2.326000e+0,3.66e-1,
2.328000e+0,3.66e-1,
2.330000e+0,3.64e-1,
2.332000e+0,3.64e-1,
2.334000e+0,3.64e-1,
2.336000e+0,3.64e-1,
2.338000e+0,3.64e-1,
2.340000e+0,3.64e-1,
2.342000e+0,3.64e-1,
2.344000e+0,3.64e-1,
2.346000e+0,3.64e-1,
2.348000e+0,3.64e-1,
2.350000e+0,3.66e-1,
2.352000e+0,3.66e-1,
2.354000e+0,3.64e-1,
2.356000e+0,3.64e-1,
2.358000e+0,3.62e-1,
2.360000e+0,3.62e-1,
2.362000e+0,3.64e-1,
2.364000e+0,3.64e-1,
2.366000e+0,3.66e-1,
2.368000e+0,3.66e-1,
2.370000e+0,3.64e-1,
2.372000e+0,3.64e-1,
2.374000e+0,3.64e-1,
2.376000e+0,3.64e-1,
2.378000e+0,3.64e-1,
2.380000e+0,3.64e-1,
2.382000e+0,3.62e-1,
2.384000e+0,3.62e-1,
2.386000e+0,3.62e-1,
2.388000e+0,3.62e-1,
2.390000e+0,3.64e-1,
2.392000e+0,3.64e-1,
2.394000e+0,3.62e-1,
2.396000e+0,3.62e-1,
2.398000e+0,3.62e-1,
2.400000e+0,3.62e-1,
2.402000e+0,3.62e-1,
2.404000e+0,3.62e-1,
2.406000e+0,3.62e-1,
2.408000e+0,3.62e-1,
2.410000e+0,3.60e-1,
2.412000e+0,3.60e-1,
2.414000e+0,3.60e-1,
2.416000e+0,3.60e-1,
2.418000e+0,3.62e-1,
2.420000e+0,3.62e-1,
2.422000e+0,3.62e-1,
2.424000e+0,3.62e-1,
2.426000e+0,3.60e-1,
2.428000e+0,3.60e-1,
2.430000e+0,3.60e-1,
2.432000e+0,3.60e-1,
2.434000e+0,3.54e-1,
2.436000e+0,3.54e-1,
2.438000e+0,3.60e-1,
2.440000e+0,3.60e-1,
2.442000e+0,3.56e-1,
2.444000e+0,3.56e-1,
2.446000e+0,3.54e-1,
2.448000e+0,3.54e-1,
2.450000e+0,3.52e-1,
2.452000e+0,3.52e-1,
2.454000e+0,3.48e-1,
2.456000e+0,3.48e-1,
2.458000e+0,3.44e-1,
2.460000e+0,3.44e-1,
2.462000e+0,3.42e-1,
2.464000e+0,3.42e-1,
2.466000e+0,3.38e-1,
2.468000e+0,3.38e-1,
2.470000e+0,3.34e-1,
2.472000e+0,3.34e-1,
2.474000e+0,3.28e-1,
2.476000e+0,3.28e-1,
2.478000e+0,3.26e-1,
2.480000e+0,3.26e-1,
2.482000e+0,3.20e-1,
2.484000e+0,3.20e-1,
2.486000e+0,3.18e-1,
2.488000e+0,3.18e-1,
2.490000e+0,3.12e-1,
2.492000e+0,3.12e-1,
2.494000e+0,3.04e-1,
2.496000e+0,3.04e-1,
2.498000e+0,2.96e-1,
2.500000e+0,2.96e-1,
2.502000e+0,2.88e-1,
2.504000e+0,2.88e-1,
2.506000e+0,2.82e-1,
2.508000e+0,2.82e-1,
2.510000e+0,2.78e-1,
2.512000e+0,2.78e-1,
2.514000e+0,2.72e-1,
2.516000e+0,2.72e-1,
2.518000e+0,2.64e-1,
2.520000e+0,2.64e-1,
2.522000e+0,2.60e-1,
2.524000e+0,2.60e-1,
2.526000e+0,2.54e-1,
2.528000e+0,2.54e-1,
2.530000e+0,2.50e-1,
2.532000e+0,2.50e-1,
2.534000e+0,2.46e-1,
2.536000e+0,2.46e-1,
2.538000e+0,2.44e-1,
2.540000e+0,2.44e-1,
2.542000e+0,2.44e-1,
2.544000e+0,2.44e-1,
2.546000e+0,2.40e-1,
2.548000e+0,2.40e-1,
2.550000e+0,2.40e-1,
2.552000e+0,2.40e-1,
2.554000e+0,2.40e-1,
2.556000e+0,2.40e-1,
2.558000e+0,2.40e-1,
2.560000e+0,2.40e-1,
2.562000e+0,2.42e-1,
2.564000e+0,2.42e-1,
2.566000e+0,2.46e-1,
2.568000e+0,2.46e-1,
2.570000e+0,2.46e-1,
2.572000e+0,2.46e-1,
2.574000e+0,2.50e-1,
2.576000e+0,2.50e-1,
2.578000e+0,2.54e-1,
2.580000e+0,2.54e-1,
2.582000e+0,2.60e-1,
2.584000e+0,2.60e-1,
2.586000e+0,2.68e-1,
2.588000e+0,2.68e-1,
2.590000e+0,2.70e-1,
2.592000e+0,2.70e-1,
2.594000e+0,2.76e-1,
2.596000e+0,2.76e-1,
2.598000e+0,2.84e-1,
2.600000e+0,2.84e-1,
2.602000e+0,2.90e-1,
2.604000e+0,2.90e-1,
2.606000e+0,2.94e-1,
2.608000e+0,2.94e-1,
2.610000e+0,2.98e-1,
2.612000e+0,2.98e-1,
2.614000e+0,3.08e-1,
2.616000e+0,3.08e-1,
2.618000e+0,3.14e-1,
2.620000e+0,3.14e-1,
2.622000e+0,3.18e-1,
2.624000e+0,3.18e-1,
2.626000e+0,3.22e-1,
2.628000e+0,3.22e-1,
2.630000e+0,3.26e-1,
2.632000e+0,3.26e-1,
2.634000e+0,3.32e-1,
2.636000e+0,3.32e-1,
2.638000e+0,3.36e-1,
2.640000e+0,3.36e-1,
2.642000e+0,3.40e-1,
2.644000e+0,3.40e-1,
2.646000e+0,3.40e-1,
2.648000e+0,3.40e-1,
2.650000e+0,3.46e-1,
2.652000e+0,3.46e-1,
2.654000e+0,3.46e-1,
2.656000e+0,3.46e-1,
2.658000e+0,3.46e-1,
2.660000e+0,3.46e-1,
2.662000e+0,3.48e-1,
2.664000e+0,3.48e-1,
2.666000e+0,3.48e-1,
2.668000e+0,3.48e-1,
2.670000e+0,3.50e-1,
2.672000e+0,3.50e-1,
2.674000e+0,3.50e-1,
2.676000e+0,3.50e-1,
2.678000e+0,3.52e-1,
2.680000e+0,3.52e-1,
2.682000e+0,3.52e-1,
2.684000e+0,3.52e-1,
2.686000e+0,3.54e-1,
2.688000e+0,3.54e-1,
2.690000e+0,3.54e-1,
2.692000e+0,3.54e-1,
2.694000e+0,3.52e-1,
2.696000e+0,3.52e-1,
2.698000e+0,3.52e-1,
2.700000e+0,3.52e-1,
2.702000e+0,3.54e-1,
2.704000e+0,3.54e-1,
2.706000e+0,3.56e-1,
2.708000e+0,3.56e-1,
2.710000e+0,3.54e-1,
2.712000e+0,3.54e-1,
2.714000e+0,3.54e-1,
2.716000e+0,3.54e-1,
2.718000e+0,3.56e-1,
2.720000e+0,3.56e-1,
2.722000e+0,3.56e-1,
2.724000e+0,3.56e-1,
2.726000e+0,3.56e-1,
2.728000e+0,3.56e-1,
2.730000e+0,3.54e-1,
2.732000e+0,3.54e-1,
2.734000e+0,3.54e-1,
2.736000e+0,3.54e-1,
2.738000e+0,3.54e-1,
2.740000e+0,3.54e-1,
2.742000e+0,3.52e-1,
2.744000e+0,3.52e-1,
2.746000e+0,3.56e-1,
2.748000e+0,3.56e-1,
2.750000e+0,3.54e-1,
2.752000e+0,3.54e-1,
2.754000e+0,3.54e-1,
2.756000e+0,3.54e-1,
2.758000e+0,3.56e-1,
2.760000e+0,3.56e-1,
2.762000e+0,3.52e-1,
2.764000e+0,3.52e-1,
2.766000e+0,3.54e-1,
2.768000e+0,3.54e-1,
2.770000e+0,3.54e-1,
2.772000e+0,3.54e-1,
2.774000e+0,3.54e-1,
2.776000e+0,3.54e-1,
2.778000e+0,3.52e-1,
2.780000e+0,3.52e-1,
2.782000e+0,3.54e-1,
2.784000e+0,3.54e-1,
2.786000e+0,3.52e-1,
2.788000e+0,3.52e-1,
2.790000e+0,3.54e-1,
2.792000e+0,3.54e-1,
2.794000e+0,3.56e-1,
2.796000e+0,3.56e-1,
2.798000e+0,3.54e-1,
2.800000e+0,3.54e-1,
2.802000e+0,3.50e-1,
2.804000e+0,3.50e-1,
2.806000e+0,3.52e-1,
2.808000e+0,3.52e-1,
2.810000e+0,3.52e-1,
2.812000e+0,3.52e-1,
2.814000e+0,3.50e-1,
2.816000e+0,3.50e-1,
2.818000e+0,3.52e-1,
2.820000e+0,3.52e-1,
2.822000e+0,3.52e-1,
2.824000e+0,3.52e-1,
2.826000e+0,3.52e-1,
2.828000e+0,3.52e-1,
2.830000e+0,3.52e-1,
2.832000e+0,3.52e-1,
2.834000e+0,3.54e-1,
2.836000e+0,3.54e-1,
2.838000e+0,3.52e-1,
2.840000e+0,3.52e-1,
2.842000e+0,3.52e-1,
2.844000e+0,3.52e-1,
2.846000e+0,3.52e-1,
2.848000e+0,3.52e-1,
2.850000e+0,3.50e-1,
2.852000e+0,3.50e-1,
2.854000e+0,3.50e-1,
2.856000e+0,3.50e-1,
2.858000e+0,3.52e-1,
2.860000e+0,3.52e-1,
2.862000e+0,3.50e-1,
2.864000e+0,3.50e-1,
2.866000e+0,3.52e-1,
2.868000e+0,3.52e-1,
2.870000e+0,3.50e-1,
2.872000e+0,3.50e-1,
2.874000e+0,3.50e-1,
2.876000e+0,3.50e-1,
2.878000e+0,3.50e-1,
2.880000e+0,3.50e-1,
2.882000e+0,3.48e-1,
2.884000e+0,3.48e-1,
2.886000e+0,3.48e-1,
2.888000e+0,3.48e-1,
2.890000e+0,3.50e-1,
2.892000e+0,3.50e-1,
2.894000e+0,3.50e-1,
2.896000e+0,3.50e-1,
2.898000e+0,3.50e-1,
2.900000e+0,3.50e-1,
2.902000e+0,3.50e-1,
2.904000e+0,3.50e-1,
2.906000e+0,3.50e-1,
2.908000e+0,3.50e-1,
2.910000e+0,3.48e-1,
2.912000e+0,3.48e-1,
2.914000e+0,3.48e-1,
2.916000e+0,3.48e-1,
2.918000e+0,3.50e-1,
2.920000e+0,3.50e-1,
2.922000e+0,3.48e-1,
2.924000e+0,3.48e-1,
2.926000e+0,3.48e-1,
2.928000e+0,3.48e-1,
2.930000e+0,3.48e-1,
2.932000e+0,3.48e-1,
2.934000e+0,3.46e-1,
2.936000e+0,3.46e-1,
2.938000e+0,3.48e-1,
2.940000e+0,3.48e-1,
2.942000e+0,3.46e-1,
2.944000e+0,3.46e-1,
2.946000e+0,3.46e-1,
2.948000e+0,3.46e-1,
2.950000e+0,3.44e-1,
2.952000e+0,3.44e-1,
2.954000e+0,3.42e-1,
2.956000e+0,3.42e-1,
2.958000e+0,3.40e-1,
2.960000e+0,3.40e-1,
2.962000e+0,3.40e-1,
2.964000e+0,3.40e-1,
2.966000e+0,3.38e-1,
2.968000e+0,3.38e-1,
2.970000e+0,3.38e-1,
2.972000e+0,3.38e-1,
2.974000e+0,3.34e-1,
2.976000e+0,3.34e-1,
2.978000e+0,3.34e-1,
2.980000e+0,3.34e-1,
2.982000e+0,3.32e-1,
2.984000e+0,3.32e-1,
2.986000e+0,3.30e-1,
2.988000e+0,3.30e-1,
2.990000e+0,3.28e-1,
2.992000e+0,3.28e-1,
2.994000e+0,3.24e-1,
2.996000e+0,3.24e-1,
2.998000e+0,3.24e-1,
3.000000e+0,3.24e-1,
3.002000e+0,3.22e-1,
3.004000e+0,3.22e-1,
3.006000e+0,3.18e-1,
3.008000e+0,3.18e-1,
3.010000e+0,3.16e-1,
3.012000e+0,3.16e-1,
3.014000e+0,3.14e-1,
3.016000e+0,3.14e-1,
3.018000e+0,3.12e-1,
3.020000e+0,3.12e-1,
3.022000e+0,3.10e-1,
3.024000e+0,3.10e-1,
3.026000e+0,3.08e-1,
3.028000e+0,3.08e-1,
3.030000e+0,3.08e-1,
3.032000e+0,3.08e-1,
3.034000e+0,3.06e-1,
3.036000e+0,3.06e-1,
3.038000e+0,3.06e-1,
3.040000e+0,3.06e-1,
3.042000e+0,3.04e-1,
3.044000e+0,3.04e-1,
3.046000e+0,3.04e-1,
3.048000e+0,3.04e-1,
3.050000e+0,3.04e-1,
3.052000e+0,3.04e-1,
3.054000e+0,3.06e-1,
3.056000e+0,3.06e-1,
3.058000e+0,3.06e-1,
3.060000e+0,3.06e-1,
3.062000e+0,3.06e-1,
3.064000e+0,3.06e-1,
3.066000e+0,3.08e-1,
3.068000e+0,3.08e-1,
3.070000e+0,3.10e-1,
3.072000e+0,3.10e-1,
3.074000e+0,3.10e-1,
3.076000e+0,3.10e-1,
3.078000e+0,3.12e-1,
3.080000e+0,3.12e-1,
3.082000e+0,3.16e-1,
3.084000e+0,3.16e-1,
3.086000e+0,3.18e-1,
3.088000e+0,3.18e-1,
3.090000e+0,3.18e-1,
3.092000e+0,3.18e-1,
3.094000e+0,3.18e-1,
3.096000e+0,3.18e-1,
3.098000e+0,3.22e-1,
3.100000e+0,3.22e-1,
3.102000e+0,3.24e-1,
3.104000e+0,3.24e-1,
3.106000e+0,3.24e-1,
3.108000e+0,3.24e-1,
3.110000e+0,3.28e-1,
3.112000e+0,3.28e-1,
3.114000e+0,3.26e-1,
3.116000e+0,3.26e-1,
3.118000e+0,3.30e-1,
3.120000e+0,3.30e-1,
3.122000e+0,3.34e-1,
3.124000e+0,3.34e-1,
3.126000e+0,3.34e-1,
3.128000e+0,3.34e-1,
3.130000e+0,3.34e-1,
3.132000e+0,3.34e-1,
3.134000e+0,3.36e-1,
3.136000e+0,3.36e-1,
3.138000e+0,3.36e-1,
3.140000e+0,3.36e-1,
3.142000e+0,3.38e-1,
3.144000e+0,3.38e-1,
3.146000e+0,3.38e-1,
3.148000e+0,3.38e-1,
3.150000e+0,3.42e-1,
3.152000e+0,3.42e-1,
3.154000e+0,3.42e-1,
3.156000e+0,3.42e-1,
3.158000e+0,3.42e-1,
3.160000e+0,3.42e-1,
3.162000e+0,3.42e-1,
3.164000e+0,3.42e-1,
3.166000e+0,3.42e-1,
3.168000e+0,3.42e-1,
3.170000e+0,3.42e-1,
3.172000e+0,3.42e-1,
3.174000e+0,3.42e-1,
3.176000e+0,3.42e-1,
3.178000e+0,3.40e-1,
3.180000e+0,3.40e-1,
3.182000e+0,3.44e-1,
3.184000e+0,3.44e-1,
3.186000e+0,3.42e-1,
3.188000e+0,3.42e-1,
3.190000e+0,3.42e-1,
3.192000e+0,3.42e-1,
3.194000e+0,3.46e-1,
3.196000e+0,3.46e-1,
3.198000e+0,3.44e-1,
3.200000e+0,3.44e-1,
3.202000e+0,3.44e-1,
3.204000e+0,3.44e-1,
3.206000e+0,3.42e-1,
3.208000e+0,3.42e-1,
3.210000e+0,3.44e-1,
3.212000e+0,3.44e-1,
3.214000e+0,3.42e-1,
3.216000e+0,3.42e-1,
3.218000e+0,3.44e-1,
3.220000e+0,3.44e-1,
3.222000e+0,3.40e-1,
3.224000e+0,3.40e-1,
3.226000e+0,3.42e-1,
3.228000e+0,3.42e-1,
3.230000e+0,3.42e-1,
3.232000e+0,3.42e-1,
3.234000e+0,3.42e-1,
3.236000e+0,3.42e-1,
3.238000e+0,3.42e-1,
3.240000e+0,3.42e-1,
3.242000e+0,3.42e-1,
3.244000e+0,3.42e-1,
3.246000e+0,3.42e-1,
3.248000e+0,3.42e-1,
3.250000e+0,3.40e-1,
3.252000e+0,3.40e-1,
3.254000e+0,3.42e-1,
3.256000e+0,3.42e-1,
3.258000e+0,3.44e-1,
3.260000e+0,3.44e-1,
3.262000e+0,3.42e-1,
3.264000e+0,3.42e-1,
3.266000e+0,3.40e-1,
3.268000e+0,3.40e-1,
3.270000e+0,3.42e-1,
3.272000e+0,3.42e-1,
3.274000e+0,3.42e-1,
3.276000e+0,3.42e-1,
3.278000e+0,3.42e-1,
3.280000e+0,3.42e-1,
3.282000e+0,3.40e-1,
3.284000e+0,3.40e-1,
3.286000e+0,3.42e-1,
3.288000e+0,3.42e-1,
3.290000e+0,3.40e-1,
3.292000e+0,3.40e-1,
3.294000e+0,3.40e-1,
3.296000e+0,3.40e-1,
3.298000e+0,3.42e-1,
3.300000e+0,3.42e-1,
3.302000e+0,3.38e-1,
3.304000e+0,3.38e-1,
3.306000e+0,3.40e-1,
3.308000e+0,3.40e-1,
3.310000e+0,3.42e-1,
3.312000e+0,3.42e-1,
3.314000e+0,3.40e-1,
3.316000e+0,3.40e-1,
3.318000e+0,3.40e-1,
3.320000e+0,3.40e-1,
3.322000e+0,3.40e-1,
3.324000e+0,3.40e-1,
3.326000e+0,3.40e-1,
3.328000e+0,3.40e-1,
3.330000e+0,3.40e-1,
3.332000e+0,3.40e-1,
3.334000e+0,3.38e-1,
3.336000e+0,3.38e-1,
3.338000e+0,3.40e-1,
3.340000e+0,3.40e-1,
3.342000e+0,3.40e-1,
3.344000e+0,3.40e-1,
3.346000e+0,3.40e-1,
3.348000e+0,3.40e-1,
3.350000e+0,3.40e-1,
3.352000e+0,3.40e-1,
3.354000e+0,3.36e-1,
3.356000e+0,3.36e-1,
3.358000e+0,3.40e-1,
3.360000e+0,3.40e-1,
3.362000e+0,3.38e-1,
3.364000e+0,3.38e-1,
3.366000e+0,3.40e-1,
3.368000e+0,3.40e-1,
3.370000e+0,3.40e-1,
3.372000e+0,3.40e-1,
3.374000e+0,3.38e-1,
3.376000e+0,3.38e-1,
3.378000e+0,3.38e-1,
3.380000e+0,3.38e-1,
3.382000e+0,3.40e-1,
3.384000e+0,3.40e-1,
3.386000e+0,3.38e-1,
3.388000e+0,3.38e-1,
3.390000e+0,3.40e-1,
3.392000e+0,3.40e-1,
3.394000e+0,3.38e-1,
3.396000e+0,3.38e-1,
3.398000e+0,3.38e-1,
3.400000e+0,3.38e-1,
3.402000e+0,3.38e-1,
3.404000e+0,3.38e-1,
3.406000e+0,3.38e-1,
3.408000e+0,3.38e-1,
3.410000e+0,3.38e-1,
3.412000e+0,3.38e-1,
3.414000e+0,3.38e-1,
3.416000e+0,3.38e-1,
3.418000e+0,3.36e-1,
3.420000e+0,3.36e-1,
3.422000e+0,3.36e-1,
3.424000e+0,3.36e-1,
3.426000e+0,3.38e-1,
3.428000e+0,3.38e-1,
3.430000e+0,3.38e-1,
3.432000e+0,3.38e-1,
3.434000e+0,3.38e-1,
3.436000e+0,3.38e-1,
3.438000e+0,3.38e-1,
3.440000e+0,3.38e-1,
3.442000e+0,3.38e-1,
3.444000e+0,3.38e-1,
3.446000e+0,3.38e-1,
3.448000e+0,3.38e-1,
3.450000e+0,3.38e-1,
3.452000e+0,3.38e-1,
3.454000e+0,3.38e-1,
3.456000e+0,3.38e-1,
3.458000e+0,3.36e-1,
3.460000e+0,3.36e-1,
3.462000e+0,3.36e-1,
3.464000e+0,3.36e-1,
3.466000e+0,3.36e-1,
3.468000e+0,3.36e-1,
3.470000e+0,3.38e-1,
3.472000e+0,3.38e-1,
3.474000e+0,3.36e-1,
3.476000e+0,3.36e-1,
3.478000e+0,3.38e-1,
3.480000e+0,3.38e-1,
3.482000e+0,3.36e-1,
3.484000e+0,3.36e-1,
3.486000e+0,3.38e-1,
3.488000e+0,3.38e-1,
3.490000e+0,3.36e-1,
3.492000e+0,3.36e-1,
3.494000e+0,3.36e-1,
3.496000e+0,3.36e-1,
3.498000e+0,3.36e-1,
3.500000e+0,3.36e-1,
3.502000e+0,3.36e-1,
3.504000e+0,3.36e-1,
3.506000e+0,3.38e-1,
3.508000e+0,3.38e-1,
3.510000e+0,3.36e-1,
3.512000e+0,3.36e-1,
3.514000e+0,3.34e-1,
3.516000e+0,3.34e-1,
3.518000e+0,3.34e-1,
3.520000e+0,3.34e-1,
3.522000e+0,3.34e-1,
3.524000e+0,3.34e-1,
3.526000e+0,3.36e-1,
3.528000e+0,3.36e-1,
3.530000e+0,3.34e-1,
3.532000e+0,3.34e-1,
3.534000e+0,3.34e-1,
3.536000e+0,3.34e-1,
3.538000e+0,3.36e-1,
3.540000e+0,3.36e-1,
3.542000e+0,3.36e-1,
3.544000e+0,3.36e-1,
3.546000e+0,3.34e-1,
3.548000e+0,3.34e-1,
3.550000e+0,3.36e-1,
3.552000e+0,3.36e-1,
3.554000e+0,3.38e-1,
3.556000e+0,3.38e-1,
3.558000e+0,3.34e-1,
3.560000e+0,3.34e-1,
3.562000e+0,3.34e-1,
3.564000e+0,3.34e-1,
3.566000e+0,3.34e-1,
3.568000e+0,3.34e-1,
3.570000e+0,3.36e-1,
3.572000e+0,3.36e-1,
3.574000e+0,3.34e-1,
3.576000e+0,3.34e-1,
3.578000e+0,3.36e-1,
3.580000e+0,3.36e-1,
3.582000e+0,3.34e-1,
3.584000e+0,3.34e-1,
3.586000e+0,3.36e-1,
3.588000e+0,3.36e-1,
3.590000e+0,3.36e-1,
3.592000e+0,3.36e-1,
3.594000e+0,3.34e-1,
3.596000e+0,3.34e-1,
3.598000e+0,3.34e-1,
3.600000e+0,3.34e-1,
3.602000e+0,3.34e-1,
3.604000e+0,3.34e-1,
3.606000e+0,3.34e-1,
3.608000e+0,3.34e-1,
3.610000e+0,3.32e-1,
3.612000e+0,3.32e-1,
3.614000e+0,3.32e-1,
3.616000e+0,3.32e-1,
3.618000e+0,3.34e-1,
3.620000e+0,3.34e-1,
3.622000e+0,3.32e-1,
3.624000e+0,3.32e-1,
3.626000e+0,3.34e-1,
3.628000e+0,3.34e-1,
3.630000e+0,3.34e-1,
3.632000e+0,3.34e-1,
3.634000e+0,3.34e-1,
3.636000e+0,3.34e-1,
3.638000e+0,3.34e-1,
3.640000e+0,3.34e-1,
3.642000e+0,3.34e-1,
3.644000e+0,3.34e-1,
3.646000e+0,3.34e-1,
3.648000e+0,3.34e-1,
3.650000e+0,3.34e-1,
3.652000e+0,3.34e-1,
3.654000e+0,3.34e-1,
3.656000e+0,3.34e-1,
3.658000e+0,3.36e-1,
3.660000e+0,3.36e-1,
3.662000e+0,3.36e-1,
3.664000e+0,3.36e-1,
3.666000e+0,3.34e-1,
3.668000e+0,3.34e-1,
3.670000e+0,3.38e-1,
3.672000e+0,3.38e-1,
3.674000e+0,3.32e-1,
3.676000e+0,3.32e-1,
3.678000e+0,3.36e-1,
3.680000e+0,3.36e-1,
3.682000e+0,3.32e-1,
3.684000e+0,3.32e-1,
3.686000e+0,3.36e-1,
3.688000e+0,3.36e-1,
3.690000e+0,3.36e-1,
3.692000e+0,3.36e-1,
3.694000e+0,3.34e-1,
3.696000e+0,3.34e-1,
3.698000e+0,3.36e-1,
3.700000e+0,3.36e-1,
3.702000e+0,3.36e-1,
3.704000e+0,3.36e-1,
3.706000e+0,3.38e-1,
3.708000e+0,3.38e-1,
3.710000e+0,3.36e-1,
3.712000e+0,3.36e-1,
3.714000e+0,3.36e-1,
3.716000e+0,3.36e-1,
3.718000e+0,3.36e-1,
3.720000e+0,3.36e-1,
3.722000e+0,3.36e-1,
3.724000e+0,3.36e-1,
3.726000e+0,3.36e-1,
3.728000e+0,3.36e-1,
3.730000e+0,3.38e-1,
3.732000e+0,3.38e-1,
3.734000e+0,3.38e-1,
3.736000e+0,3.38e-1,
3.738000e+0,3.36e-1,
3.740000e+0,3.36e-1,
3.742000e+0,3.36e-1,
3.744000e+0,3.36e-1,
3.746000e+0,3.36e-1,
3.748000e+0,3.36e-1,
3.750000e+0,3.36e-1,
3.752000e+0,3.36e-1,
3.754000e+0,3.36e-1,
3.756000e+0,3.36e-1,
3.758000e+0,3.38e-1,
3.760000e+0,3.38e-1,
3.762000e+0,3.38e-1,
3.764000e+0,3.38e-1,
3.766000e+0,3.38e-1,
3.768000e+0,3.38e-1,
3.770000e+0,3.36e-1,
3.772000e+0,3.36e-1,
3.774000e+0,3.38e-1,
3.776000e+0,3.38e-1,
3.778000e+0,3.36e-1,
3.780000e+0,3.36e-1,
3.782000e+0,3.38e-1,
3.784000e+0,3.38e-1,
3.786000e+0,3.38e-1,
3.788000e+0,3.38e-1,
3.790000e+0,3.38e-1,
3.792000e+0,3.38e-1,
3.794000e+0,3.40e-1,
3.796000e+0,3.40e-1,
3.798000e+0,3.38e-1,
3.800000e+0,3.38e-1,
3.802000e+0,3.40e-1,
3.804000e+0,3.40e-1,
3.806000e+0,3.40e-1,
3.808000e+0,3.40e-1,
3.810000e+0,3.38e-1,
3.812000e+0,3.38e-1,
3.814000e+0,3.38e-1,
3.816000e+0,3.38e-1,
3.818000e+0,3.38e-1,
3.820000e+0,3.38e-1,
3.822000e+0,3.38e-1,
3.824000e+0,3.38e-1,
3.826000e+0,3.40e-1,
3.828000e+0,3.40e-1,
3.830000e+0,3.40e-1,
3.832000e+0,3.40e-1,
3.834000e+0,3.38e-1,
3.836000e+0,3.38e-1,
3.838000e+0,3.38e-1,
3.840000e+0,3.38e-1,
3.842000e+0,3.40e-1,
3.844000e+0,3.40e-1,
3.846000e+0,3.38e-1,
3.848000e+0,3.38e-1,
3.850000e+0,3.38e-1,
3.852000e+0,3.38e-1,
3.854000e+0,3.40e-1,
3.856000e+0,3.40e-1,
3.858000e+0,3.38e-1,
3.860000e+0,3.38e-1,
3.862000e+0,3.38e-1,
3.864000e+0,3.38e-1,
3.866000e+0,3.40e-1,
3.868000e+0,3.40e-1,
3.870000e+0,3.40e-1,
3.872000e+0,3.40e-1,
3.874000e+0,3.40e-1,
3.876000e+0,3.40e-1,
3.878000e+0,3.40e-1,
3.880000e+0,3.40e-1,
3.882000e+0,3.40e-1,
3.884000e+0,3.40e-1,
3.886000e+0,3.40e-1,
3.888000e+0,3.40e-1,
3.890000e+0,3.40e-1,
3.892000e+0,3.40e-1,
3.894000e+0,3.40e-1,
3.896000e+0,3.40e-1,
3.898000e+0,3.40e-1,
3.900000e+0,3.40e-1,
3.902000e+0,3.42e-1,
3.904000e+0,3.42e-1,
3.906000e+0,3.40e-1,
3.908000e+0,3.40e-1,
3.910000e+0,3.38e-1,
3.912000e+0,3.38e-1,
3.914000e+0,3.40e-1,
3.916000e+0,3.40e-1,
3.918000e+0,3.42e-1,
3.920000e+0,3.42e-1,
3.922000e+0,3.42e-1,
3.924000e+0,3.42e-1,
3.926000e+0,3.40e-1,
3.928000e+0,3.40e-1,
3.930000e+0,3.38e-1,
3.932000e+0,3.38e-1,
3.934000e+0,3.40e-1,
3.936000e+0,3.40e-1,
3.938000e+0,3.40e-1,
3.940000e+0,3.40e-1,
3.942000e+0,3.42e-1,
3.944000e+0,3.42e-1,
3.946000e+0,3.40e-1,
3.948000e+0,3.40e-1,
3.950000e+0,3.42e-1,
3.952000e+0,3.42e-1,
3.954000e+0,3.42e-1,
3.956000e+0,3.42e-1,
3.958000e+0,3.42e-1,
3.960000e+0,3.42e-1,
3.962000e+0,3.40e-1,
3.964000e+0,3.40e-1,
3.966000e+0,3.42e-1,
3.968000e+0,3.42e-1,
3.970000e+0,3.42e-1,
3.972000e+0,3.42e-1,
3.974000e+0,3.40e-1,
3.976000e+0,3.40e-1,
3.978000e+0,3.42e-1,
3.980000e+0,3.42e-1,
3.982000e+0,3.42e-1,
3.984000e+0,3.42e-1,
3.986000e+0,3.42e-1,
3.988000e+0,3.42e-1,
3.990000e+0,3.42e-1,
3.992000e+0,3.42e-1,
3.994000e+0,3.42e-1,
3.996000e+0,3.42e-1,
3.998000e+0,3.42e-1,
4.000000e+0,3.42e-1,
4.002000e+0,3.44e-1,
4.004000e+0,3.44e-1,
4.006000e+0,3.42e-1,
4.008000e+0,3.42e-1,
4.010000e+0,3.44e-1,
4.012000e+0,3.44e-1,
4.014000e+0,3.42e-1,
4.016000e+0,3.42e-1,
4.018000e+0,3.42e-1,
4.020000e+0,3.42e-1,
4.022000e+0,3.44e-1,
4.024000e+0,3.44e-1,
4.026000e+0,3.44e-1,
4.028000e+0,3.44e-1,
4.030000e+0,3.44e-1,
4.032000e+0,3.44e-1,
4.034000e+0,3.44e-1,
4.036000e+0,3.44e-1,
4.038000e+0,3.44e-1,
4.040000e+0,3.44e-1,
4.042000e+0,3.42e-1,
4.044000e+0,3.42e-1,
4.046000e+0,3.44e-1,
4.048000e+0,3.44e-1,
4.050000e+0,3.44e-1,
4.052000e+0,3.44e-1,
4.054000e+0,3.44e-1,
4.056000e+0,3.44e-1,
4.058000e+0,3.46e-1,
4.060000e+0,3.46e-1,
4.062000e+0,3.44e-1,
4.064000e+0,3.44e-1,
4.066000e+0,3.44e-1,
4.068000e+0,3.44e-1,
4.070000e+0,3.46e-1,
4.072000e+0,3.46e-1,
4.074000e+0,3.44e-1,
4.076000e+0,3.44e-1,
4.078000e+0,3.46e-1,
4.080000e+0,3.46e-1,
4.082000e+0,3.44e-1,
4.084000e+0,3.44e-1,
4.086000e+0,3.44e-1,
4.088000e+0,3.44e-1,
4.090000e+0,3.44e-1,
4.092000e+0,3.44e-1,
4.094000e+0,3.46e-1,
4.096000e+0,3.46e-1,
4.098000e+0,3.44e-1,
4.100000e+0,3.44e-1,
4.102000e+0,3.44e-1,
4.104000e+0,3.44e-1,
4.106000e+0,3.44e-1,
4.108000e+0,3.44e-1,
4.110000e+0,3.44e-1,
4.112000e+0,3.44e-1,
4.114000e+0,3.44e-1,
4.116000e+0,3.44e-1,
4.118000e+0,3.46e-1,
4.120000e+0,3.46e-1,
4.122000e+0,3.44e-1,
4.124000e+0,3.44e-1,
4.126000e+0,3.44e-1,
4.128000e+0,3.44e-1,
4.130000e+0,3.44e-1,
4.132000e+0,3.44e-1,
4.134000e+0,3.46e-1,
4.136000e+0,3.46e-1,
4.138000e+0,3.46e-1,
4.140000e+0,3.46e-1,
4.142000e+0,3.46e-1,
4.144000e+0,3.46e-1,
4.146000e+0,3.46e-1,
4.148000e+0,3.46e-1,
4.150000e+0,3.46e-1,
4.152000e+0,3.46e-1,
4.154000e+0,3.46e-1,
4.156000e+0,3.46e-1,
4.158000e+0,3.44e-1,
4.160000e+0,3.44e-1,
4.162000e+0,3.44e-1,
4.164000e+0,3.44e-1,
4.166000e+0,3.46e-1,
4.168000e+0,3.46e-1,
4.170000e+0,3.44e-1,
4.172000e+0,3.44e-1,
4.174000e+0,3.44e-1,
4.176000e+0,3.44e-1,
4.178000e+0,3.44e-1,
4.180000e+0,3.44e-1,
4.182000e+0,3.42e-1,
4.184000e+0,3.42e-1,
4.186000e+0,3.44e-1,
4.188000e+0,3.44e-1,
4.190000e+0,3.42e-1,
4.192000e+0,3.42e-1,
4.194000e+0,3.38e-1,
4.196000e+0,3.38e-1,
4.198000e+0,3.40e-1,
4.200000e+0,3.40e-1,
4.202000e+0,3.38e-1,
4.204000e+0,3.38e-1,
4.206000e+0,3.38e-1,
4.208000e+0,3.38e-1,
4.210000e+0,3.36e-1,
4.212000e+0,3.36e-1,
4.214000e+0,3.36e-1,
4.216000e+0,3.36e-1,
4.218000e+0,3.36e-1,
4.220000e+0,3.36e-1,
4.222000e+0,3.30e-1,
4.224000e+0,3.30e-1,
4.226000e+0,3.30e-1,
4.228000e+0,3.30e-1,
4.230000e+0,3.28e-1,
4.232000e+0,3.28e-1,
4.234000e+0,3.28e-1,
4.236000e+0,3.28e-1,
4.238000e+0,3.26e-1,
4.240000e+0,3.26e-1,
4.242000e+0,3.24e-1,
4.244000e+0,3.24e-1,
4.246000e+0,3.22e-1,
4.248000e+0,3.22e-1,
4.250000e+0,3.20e-1,
4.252000e+0,3.20e-1,
4.254000e+0,3.16e-1,
4.256000e+0,3.16e-1,
4.258000e+0,3.18e-1,
4.260000e+0,3.18e-1,
4.262000e+0,3.14e-1,
4.264000e+0,3.14e-1,
4.266000e+0,3.12e-1,
4.268000e+0,3.12e-1,
4.270000e+0,3.10e-1,
4.272000e+0,3.10e-1,
4.274000e+0,3.10e-1,
4.276000e+0,3.10e-1,
4.278000e+0,3.10e-1,
4.280000e+0,3.10e-1,
4.282000e+0,3.08e-1,
4.284000e+0,3.08e-1,
4.286000e+0,3.10e-1,
4.288000e+0,3.10e-1,
4.290000e+0,3.06e-1,
4.292000e+0,3.06e-1,
4.294000e+0,3.08e-1,
4.296000e+0,3.08e-1,
4.298000e+0,3.08e-1,
4.300000e+0,3.08e-1,
4.302000e+0,3.08e-1,
4.304000e+0,3.08e-1,
4.306000e+0,3.08e-1,
4.308000e+0,3.08e-1,
4.310000e+0,3.10e-1,
4.312000e+0,3.10e-1,
4.314000e+0,3.10e-1,
4.316000e+0,3.10e-1,
4.318000e+0,3.12e-1,
4.320000e+0,3.12e-1,
4.322000e+0,3.14e-1,
4.324000e+0,3.14e-1,
4.326000e+0,3.14e-1,
4.328000e+0,3.14e-1,
4.330000e+0,3.18e-1,
4.332000e+0,3.18e-1,
4.334000e+0,3.18e-1,
4.336000e+0,3.18e-1,
4.338000e+0,3.22e-1,
4.340000e+0,3.22e-1,
4.342000e+0,3.22e-1,
4.344000e+0,3.22e-1,
4.346000e+0,3.24e-1,
4.348000e+0,3.24e-1,
4.350000e+0,3.28e-1,
4.352000e+0,3.28e-1,
4.354000e+0,3.30e-1,
4.356000e+0,3.30e-1,
4.358000e+0,3.30e-1,
4.360000e+0,3.30e-1,
4.362000e+0,3.34e-1,
4.364000e+0,3.34e-1,
4.366000e+0,3.34e-1,
4.368000e+0,3.34e-1,
4.370000e+0,3.36e-1,
4.372000e+0,3.36e-1,
4.374000e+0,3.38e-1,
4.376000e+0,3.38e-1,
4.378000e+0,3.42e-1,
4.380000e+0,3.42e-1,
4.382000e+0,3.40e-1,
4.384000e+0,3.40e-1,
4.386000e+0,3.44e-1,
4.388000e+0,3.44e-1,
4.390000e+0,3.44e-1,
4.392000e+0,3.44e-1,
4.394000e+0,3.44e-1,
4.396000e+0,3.44e-1,
4.398000e+0,3.46e-1,
4.400000e+0,3.46e-1,
4.402000e+0,3.48e-1,
4.404000e+0,3.48e-1,
4.406000e+0,3.48e-1,
4.408000e+0,3.48e-1,
4.410000e+0,3.48e-1,
4.412000e+0,3.48e-1,
4.414000e+0,3.50e-1,
4.416000e+0,3.50e-1,
4.418000e+0,3.48e-1,
4.420000e+0,3.48e-1,
4.422000e+0,3.48e-1,
4.424000e+0,3.48e-1,
4.426000e+0,3.50e-1,
4.428000e+0,3.50e-1,
4.430000e+0,3.48e-1,
4.432000e+0,3.48e-1,
4.434000e+0,3.54e-1,
4.436000e+0,3.54e-1,
4.438000e+0,3.52e-1,
4.440000e+0,3.52e-1,
4.442000e+0,3.52e-1,
4.444000e+0,3.52e-1,
4.446000e+0,3.54e-1,
4.448000e+0,3.54e-1,
4.450000e+0,3.50e-1,
4.452000e+0,3.50e-1,
4.454000e+0,3.52e-1,
4.456000e+0,3.52e-1,
4.458000e+0,3.54e-1,
4.460000e+0,3.54e-1,
4.462000e+0,3.52e-1,
4.464000e+0,3.52e-1,
4.466000e+0,3.52e-1,
4.468000e+0,3.52e-1,
4.470000e+0,3.54e-1,
4.472000e+0,3.54e-1,
4.474000e+0,3.54e-1,
4.476000e+0,3.54e-1,
4.478000e+0,3.54e-1,
4.480000e+0,3.54e-1,
4.482000e+0,3.52e-1,
4.484000e+0,3.52e-1,
4.486000e+0,3.52e-1,
4.488000e+0,3.52e-1,
4.490000e+0,3.54e-1,
4.492000e+0,3.54e-1,
4.494000e+0,3.54e-1,
4.496000e+0,3.54e-1,
4.498000e+0,3.52e-1,
4.500000e+0,3.52e-1,
4.502000e+0,3.54e-1,
4.504000e+0,3.54e-1,
4.506000e+0,3.54e-1,
4.508000e+0,3.54e-1,
4.510000e+0,3.54e-1,
4.512000e+0,3.54e-1,
4.514000e+0,3.52e-1,
4.516000e+0,3.52e-1,
4.518000e+0,3.54e-1,
4.520000e+0,3.54e-1,
4.522000e+0,3.54e-1,
4.524000e+0,3.54e-1,
4.526000e+0,3.54e-1,
4.528000e+0,3.54e-1,
4.530000e+0,3.54e-1,
4.532000e+0,3.54e-1,
4.534000e+0,3.56e-1,
4.536000e+0,3.56e-1,
4.538000e+0,3.52e-1,
4.540000e+0,3.52e-1,
4.542000e+0,3.56e-1,
4.544000e+0,3.56e-1,
4.546000e+0,3.54e-1,
4.548000e+0,3.54e-1,
4.550000e+0,3.54e-1,
4.552000e+0,3.54e-1,
4.554000e+0,3.56e-1,
4.556000e+0,3.56e-1,
4.558000e+0,3.56e-1,
4.560000e+0,3.56e-1,
4.562000e+0,3.54e-1,
4.564000e+0,3.54e-1,
4.566000e+0,3.56e-1,
4.568000e+0,3.56e-1,
4.570000e+0,3.56e-1,
4.572000e+0,3.56e-1,
4.574000e+0,3.56e-1,
4.576000e+0,3.56e-1,
4.578000e+0,3.56e-1,
4.580000e+0,3.56e-1,
4.582000e+0,3.56e-1,
4.584000e+0,3.56e-1,
4.586000e+0,3.56e-1,
4.588000e+0,3.56e-1,
4.590000e+0,3.56e-1,
4.592000e+0,3.56e-1,
4.594000e+0,3.56e-1,
4.596000e+0,3.56e-1,
4.598000e+0,3.56e-1,
4.600000e+0,3.56e-1,
4.602000e+0,3.58e-1,
4.604000e+0,3.58e-1,
4.606000e+0,3.54e-1,
4.608000e+0,3.54e-1,
4.610000e+0,3.56e-1,
4.612000e+0,3.56e-1,
4.614000e+0,3.58e-1,
4.616000e+0,3.58e-1,
4.618000e+0,3.58e-1,
4.620000e+0,3.58e-1,
4.622000e+0,3.56e-1,
4.624000e+0,3.56e-1,
4.626000e+0,3.56e-1,
4.628000e+0,3.56e-1,
4.630000e+0,3.56e-1,
4.632000e+0,3.56e-1,
4.634000e+0,3.58e-1,
4.636000e+0,3.58e-1,
4.638000e+0,3.56e-1,
4.640000e+0,3.56e-1,
4.642000e+0,3.58e-1,
4.644000e+0,3.58e-1,
4.646000e+0,3.58e-1,
4.648000e+0,3.58e-1,
4.650000e+0,3.56e-1,
4.652000e+0,3.56e-1,
4.654000e+0,3.58e-1,
4.656000e+0,3.58e-1,
4.658000e+0,3.60e-1,
4.660000e+0,3.60e-1,
4.662000e+0,3.58e-1,
4.664000e+0,3.58e-1,
4.666000e+0,3.58e-1,
4.668000e+0,3.58e-1,
4.670000e+0,3.54e-1,
4.672000e+0,3.54e-1,
4.674000e+0,3.54e-1,
4.676000e+0,3.54e-1,
4.678000e+0,3.56e-1,
4.680000e+0,3.56e-1,
4.682000e+0,3.54e-1,
4.684000e+0,3.54e-1,
4.686000e+0,3.54e-1,
4.688000e+0,3.54e-1,
4.690000e+0,3.52e-1,
4.692000e+0,3.52e-1,
4.694000e+0,3.52e-1,
4.696000e+0,3.52e-1,
4.698000e+0,3.50e-1,
4.700000e+0,3.50e-1,
4.702000e+0,3.50e-1,
4.704000e+0,3.50e-1,
4.706000e+0,3.46e-1,
4.708000e+0,3.46e-1,
4.710000e+0,3.44e-1,
4.712000e+0,3.44e-1,
4.714000e+0,3.40e-1,
4.716000e+0,3.40e-1,
4.718000e+0,3.40e-1,
4.720000e+0,3.40e-1,
4.722000e+0,3.36e-1,
4.724000e+0,3.36e-1,
4.726000e+0,3.32e-1,
4.728000e+0,3.32e-1,
4.730000e+0,3.24e-1,
4.732000e+0,3.24e-1,
4.734000e+0,3.22e-1,
4.736000e+0,3.22e-1,
4.738000e+0,3.18e-1,
4.740000e+0,3.18e-1,
4.742000e+0,3.12e-1,
4.744000e+0,3.12e-1,
4.746000e+0,3.06e-1,
4.748000e+0,3.06e-1,
4.750000e+0,3.00e-1,
4.752000e+0,3.00e-1,
4.754000e+0,2.96e-1,
4.756000e+0,2.96e-1,
4.758000e+0,2.90e-1,
4.760000e+0,2.90e-1,
4.762000e+0,2.84e-1,
4.764000e+0,2.84e-1,
4.766000e+0,2.76e-1,
4.768000e+0,2.76e-1,
4.770000e+0,2.70e-1,
4.772000e+0,2.70e-1,
4.774000e+0,2.64e-1,
4.776000e+0,2.64e-1,
4.778000e+0,2.62e-1,
4.780000e+0,2.62e-1,
4.782000e+0,2.58e-1,
4.784000e+0,2.58e-1,
4.786000e+0,2.50e-1,
4.788000e+0,2.50e-1,
4.790000e+0,2.48e-1,
4.792000e+0,2.48e-1,
4.794000e+0,2.46e-1,
4.796000e+0,2.46e-1,
4.798000e+0,2.44e-1,
4.800000e+0,2.44e-1,
4.802000e+0,2.42e-1,
4.804000e+0,2.42e-1,
4.806000e+0,2.42e-1,
4.808000e+0,2.42e-1,
4.810000e+0,2.42e-1,
4.812000e+0,2.42e-1,
4.814000e+0,2.40e-1,
4.816000e+0,2.40e-1,
4.818000e+0,2.42e-1,
4.820000e+0,2.42e-1,
4.822000e+0,2.46e-1,
4.824000e+0,2.46e-1,
4.826000e+0,2.50e-1,
4.828000e+0,2.50e-1,
4.830000e+0,2.54e-1,
4.832000e+0,2.54e-1,
4.834000e+0,2.56e-1,
4.836000e+0,2.56e-1,
4.838000e+0,2.60e-1,
4.840000e+0,2.60e-1,
4.842000e+0,2.70e-1,
4.844000e+0,2.70e-1,
4.846000e+0,2.74e-1,
4.848000e+0,2.74e-1,
4.850000e+0,2.78e-1,
4.852000e+0,2.78e-1,
4.854000e+0,2.86e-1,
4.856000e+0,2.86e-1,
4.858000e+0,2.94e-1,
4.860000e+0,2.94e-1,
4.862000e+0,3.00e-1,
4.864000e+0,3.00e-1,
4.866000e+0,3.06e-1,
4.868000e+0,3.06e-1,
4.870000e+0,3.12e-1,
4.872000e+0,3.12e-1,
4.874000e+0,3.16e-1,
4.876000e+0,3.16e-1,
4.878000e+0,3.24e-1,
4.880000e+0,3.24e-1,
4.882000e+0,3.26e-1,
4.884000e+0,3.26e-1,
4.886000e+0,3.32e-1,
4.888000e+0,3.32e-1,
4.890000e+0,3.38e-1,
4.892000e+0,3.38e-1,
4.894000e+0,3.40e-1,
4.896000e+0,3.40e-1,
4.898000e+0,3.46e-1,
4.900000e+0,3.46e-1,
4.902000e+0,3.48e-1,
4.904000e+0,3.48e-1,
4.906000e+0,3.50e-1,
4.908000e+0,3.50e-1,
4.910000e+0,3.52e-1,
4.912000e+0,3.52e-1,
4.914000e+0,3.56e-1,
4.916000e+0,3.56e-1,
4.918000e+0,3.56e-1,
4.920000e+0,3.56e-1,
4.922000e+0,3.58e-1,
4.924000e+0,3.58e-1,
4.926000e+0,3.60e-1,
4.928000e+0,3.60e-1,
4.930000e+0,3.60e-1,
4.932000e+0,3.60e-1,
4.934000e+0,3.60e-1,
4.936000e+0,3.60e-1,
4.938000e+0,3.64e-1,
4.940000e+0,3.64e-1,
4.942000e+0,3.64e-1,
4.944000e+0,3.64e-1,
4.946000e+0,3.62e-1,
4.948000e+0,3.62e-1,
4.950000e+0,3.64e-1,
4.952000e+0,3.64e-1,
4.954000e+0,3.64e-1,
4.956000e+0,3.64e-1,
4.958000e+0,3.64e-1,
4.960000e+0,3.64e-1,
4.962000e+0,3.66e-1,
4.964000e+0,3.66e-1,
4.966000e+0,3.64e-1,
4.968000e+0,3.64e-1,
4.970000e+0,3.66e-1,
4.972000e+0,3.66e-1,
4.974000e+0,3.64e-1,
4.976000e+0,3.64e-1,
4.978000e+0,3.64e-1,
4.980000e+0,3.64e-1,
4.982000e+0,3.64e-1,
4.984000e+0,3.64e-1,
4.986000e+0,3.64e-1,
4.988000e+0,3.64e-1,
4.990000e+0,3.66e-1,
4.992000e+0,3.66e-1,
4.994000e+0,3.64e-1,
4.996000e+0,3.64e-1,
4.998000e+0,3.64e-1,
5.000000e+0,3.64e-1,
5.002000e+0,3.66e-1,
5.004000e+0,3.66e-1,
5.006000e+0,3.66e-1,
5.008000e+0,3.66e-1,
5.010000e+0,3.66e-1,
5.012000e+0,3.66e-1,
5.014000e+0,3.66e-1,
5.016000e+0,3.66e-1,
5.018000e+0,3.68e-1,
5.020000e+0,3.68e-1,
5.022000e+0,3.64e-1,
5.024000e+0,3.64e-1,
5.026000e+0,3.66e-1,
5.028000e+0,3.66e-1,
5.030000e+0,3.66e-1,
5.032000e+0,3.66e-1,
5.034000e+0,3.66e-1,
5.036000e+0,3.66e-1,
5.038000e+0,3.64e-1,
5.040000e+0,3.64e-1,
5.042000e+0,3.66e-1,
5.044000e+0,3.66e-1,
5.046000e+0,3.68e-1,
5.048000e+0,3.68e-1,
5.050000e+0,3.66e-1,
5.052000e+0,3.66e-1,
5.054000e+0,3.66e-1,
5.056000e+0,3.66e-1,
5.058000e+0,3.66e-1,
5.060000e+0,3.66e-1,
5.062000e+0,3.68e-1,
5.064000e+0,3.68e-1,
5.066000e+0,3.68e-1,
5.068000e+0,3.68e-1,
5.070000e+0,3.68e-1,
5.072000e+0,3.68e-1,
5.074000e+0,3.64e-1,
5.076000e+0,3.64e-1,
5.078000e+0,3.68e-1,
5.080000e+0,3.68e-1,
5.082000e+0,3.70e-1,
5.084000e+0,3.70e-1,
5.086000e+0,3.66e-1,
5.088000e+0,3.66e-1,
5.090000e+0,3.66e-1,
5.092000e+0,3.66e-1,
5.094000e+0,3.68e-1,
5.096000e+0,3.68e-1,
5.098000e+0,3.70e-1,
5.100000e+0,3.70e-1,
5.102000e+0,3.66e-1,
5.104000e+0,3.66e-1,
5.106000e+0,3.70e-1,
5.108000e+0,3.70e-1,
5.110000e+0,3.70e-1,
5.112000e+0,3.70e-1,
5.114000e+0,3.68e-1,
5.116000e+0,3.68e-1,
5.118000e+0,3.70e-1,
5.120000e+0,3.70e-1,
5.122000e+0,3.70e-1,
5.124000e+0,3.70e-1,
5.126000e+0,3.70e-1,
5.128000e+0,3.70e-1,
5.130000e+0,3.68e-1,
5.132000e+0,3.68e-1,
5.134000e+0,3.66e-1,
5.136000e+0,3.66e-1,
5.138000e+0,3.70e-1,
5.140000e+0,3.70e-1,
5.142000e+0,3.70e-1,
5.144000e+0,3.70e-1,
5.146000e+0,3.70e-1,
5.148000e+0,3.70e-1,
5.150000e+0,3.70e-1,
5.152000e+0,3.70e-1,
5.154000e+0,3.72e-1,
5.156000e+0,3.72e-1,
5.158000e+0,3.70e-1,
5.160000e+0,3.70e-1,
5.162000e+0,3.70e-1,
5.164000e+0,3.70e-1,
5.166000e+0,3.68e-1,
5.168000e+0,3.68e-1,
5.170000e+0,3.68e-1,
5.172000e+0,3.68e-1,
5.174000e+0,3.72e-1,
5.176000e+0,3.72e-1,
5.178000e+0,3.70e-1,
5.180000e+0,3.70e-1,
5.182000e+0,3.70e-1,
5.184000e+0,3.70e-1,
5.186000e+0,3.70e-1,
5.188000e+0,3.70e-1,
5.190000e+0,3.70e-1,
5.192000e+0,3.70e-1,
5.194000e+0,3.70e-1,
5.196000e+0,3.70e-1,
5.198000e+0,3.72e-1,
5.200000e+0,3.72e-1,
5.202000e+0,3.70e-1,
5.204000e+0,3.70e-1,
5.206000e+0,3.68e-1,
5.208000e+0,3.68e-1,
5.210000e+0,3.72e-1,
5.212000e+0,3.72e-1,
5.214000e+0,3.70e-1,
5.216000e+0,3.70e-1,
5.218000e+0,3.70e-1,
5.220000e+0,3.70e-1,
5.222000e+0,3.72e-1,
5.224000e+0,3.72e-1,
5.226000e+0,3.72e-1,
5.228000e+0,3.72e-1,
5.230000e+0,3.70e-1,
5.232000e+0,3.70e-1,
5.234000e+0,3.70e-1,
5.236000e+0,3.70e-1,
5.238000e+0,3.70e-1,
5.240000e+0,3.70e-1,
5.242000e+0,3.72e-1,
5.244000e+0,3.72e-1,
5.246000e+0,3.70e-1,
5.248000e+0,3.70e-1,
5.250000e+0,3.70e-1,
5.252000e+0,3.70e-1,
5.254000e+0,3.66e-1,
5.256000e+0,3.66e-1,
5.258000e+0,3.70e-1,
5.260000e+0,3.70e-1,
5.262000e+0,3.64e-1,
5.264000e+0,3.64e-1,
5.266000e+0,3.66e-1,
5.268000e+0,3.66e-1,
5.270000e+0,3.62e-1,
5.272000e+0,3.62e-1,
5.274000e+0,3.62e-1,
5.276000e+0,3.62e-1,
5.278000e+0,3.56e-1,
5.280000e+0,3.56e-1,
5.282000e+0,3.50e-1,
5.284000e+0,3.50e-1,
5.286000e+0,3.48e-1,
5.288000e+0,3.48e-1,
5.290000e+0,3.44e-1,
5.292000e+0,3.44e-1,
5.294000e+0,3.40e-1,
5.296000e+0,3.40e-1,
5.298000e+0,3.36e-1,
5.300000e+0,3.36e-1,
5.302000e+0,3.28e-1,
5.304000e+0,3.28e-1,
5.306000e+0,3.24e-1,
5.308000e+0,3.24e-1,
5.310000e+0,3.10e-1,
5.312000e+0,3.10e-1,
5.314000e+0,3.04e-1,
5.316000e+0,3.04e-1,
5.318000e+0,2.94e-1,
5.320000e+0,2.94e-1,
5.322000e+0,2.86e-1,
5.324000e+0,2.86e-1,
5.326000e+0,2.78e-1,
5.328000e+0,2.78e-1,
5.330000e+0,2.70e-1,
5.332000e+0,2.70e-1,
5.334000e+0,2.62e-1,
5.336000e+0,2.62e-1,
5.338000e+0,2.56e-1,
5.340000e+0,2.56e-1,
5.342000e+0,2.44e-1,
5.344000e+0,2.44e-1,
5.346000e+0,2.38e-1,
5.348000e+0,2.38e-1,
5.350000e+0,2.32e-1,
5.352000e+0,2.32e-1,
5.354000e+0,2.26e-1,
5.356000e+0,2.26e-1,
5.358000e+0,2.22e-1,
5.360000e+0,2.22e-1,
5.362000e+0,2.16e-1,
5.364000e+0,2.16e-1,
5.366000e+0,2.12e-1,
5.368000e+0,2.12e-1,
5.370000e+0,2.10e-1,
5.372000e+0,2.10e-1,
5.374000e+0,2.08e-1,
5.376000e+0,2.08e-1,
5.378000e+0,2.06e-1,
5.380000e+0,2.06e-1,
5.382000e+0,2.08e-1,
5.384000e+0,2.08e-1,
5.386000e+0,2.10e-1,
5.388000e+0,2.10e-1,
5.390000e+0,2.10e-1,
5.392000e+0,2.10e-1,
5.394000e+0,2.16e-1,
5.396000e+0,2.16e-1,
5.398000e+0,2.18e-1,
5.400000e+0,2.18e-1,
5.402000e+0,2.22e-1,
5.404000e+0,2.22e-1,
5.406000e+0,2.30e-1,
5.408000e+0,2.30e-1,
5.410000e+0,2.38e-1,
5.412000e+0,2.38e-1,
5.414000e+0,2.48e-1,
5.416000e+0,2.48e-1,
5.418000e+0,2.52e-1,
5.420000e+0,2.52e-1,
5.422000e+0,2.60e-1,
5.424000e+0,2.60e-1,
5.426000e+0,2.70e-1,
5.428000e+0,2.70e-1,
5.430000e+0,2.76e-1,
5.432000e+0,2.76e-1,
5.434000e+0,2.84e-1,
5.436000e+0,2.84e-1,
5.438000e+0,2.92e-1,
5.440000e+0,2.92e-1,
5.442000e+0,3.06e-1,
5.444000e+0,3.06e-1,
5.446000e+0,3.12e-1,
5.448000e+0,3.12e-1,
5.450000e+0,3.20e-1,
5.452000e+0,3.20e-1,
5.454000e+0,3.26e-1,
5.456000e+0,3.26e-1,
5.458000e+0,3.32e-1,
5.460000e+0,3.32e-1,
5.462000e+0,3.40e-1,
5.464000e+0,3.40e-1,
5.466000e+0,3.44e-1,
5.468000e+0,3.44e-1,
5.470000e+0,3.48e-1,
5.472000e+0,3.48e-1,
5.474000e+0,3.52e-1,
5.476000e+0,3.52e-1,
5.478000e+0,3.56e-1,
5.480000e+0,3.56e-1,
5.482000e+0,3.58e-1,
5.484000e+0,3.58e-1,
5.486000e+0,3.64e-1,
5.488000e+0,3.64e-1,
5.490000e+0,3.64e-1,
5.492000e+0,3.64e-1,
5.494000e+0,3.64e-1,
5.496000e+0,3.64e-1,
5.498000e+0,3.66e-1,
5.500000e+0,3.66e-1,
5.502000e+0,3.66e-1,
5.504000e+0,3.66e-1,
5.506000e+0,3.64e-1,
5.508000e+0,3.64e-1,
5.510000e+0,3.62e-1,
5.512000e+0,3.62e-1,
5.514000e+0,3.60e-1,
5.516000e+0,3.60e-1,
5.518000e+0,3.58e-1,
5.520000e+0,3.58e-1,
5.522000e+0,3.56e-1,
5.524000e+0,3.56e-1,
5.526000e+0,3.52e-1,
5.528000e+0,3.52e-1,
5.530000e+0,3.50e-1,
5.532000e+0,3.50e-1,
5.534000e+0,3.48e-1,
5.536000e+0,3.48e-1,
5.538000e+0,3.46e-1,
5.540000e+0,3.46e-1,
5.542000e+0,3.40e-1,
5.544000e+0,3.40e-1,
5.546000e+0,3.40e-1,
5.548000e+0,3.40e-1,
5.550000e+0,3.34e-1,
5.552000e+0,3.34e-1,
5.554000e+0,3.28e-1,
5.556000e+0,3.28e-1,
5.558000e+0,3.28e-1,
5.560000e+0,3.28e-1,
5.562000e+0,3.22e-1,
5.564000e+0,3.22e-1,
5.566000e+0,3.20e-1,
5.568000e+0,3.20e-1,
5.570000e+0,3.16e-1,
5.572000e+0,3.16e-1,
5.574000e+0,3.14e-1,
5.576000e+0,3.14e-1,
5.578000e+0,3.10e-1,
5.580000e+0,3.10e-1,
5.582000e+0,3.10e-1,
5.584000e+0,3.10e-1,
5.586000e+0,3.06e-1,
5.588000e+0,3.06e-1,
5.590000e+0,3.06e-1,
5.592000e+0,3.06e-1,
5.594000e+0,3.08e-1,
5.596000e+0,3.08e-1,
5.598000e+0,3.06e-1,
5.600000e+0,3.06e-1,
5.602000e+0,3.04e-1,
5.604000e+0,3.04e-1,
5.606000e+0,3.06e-1,
5.608000e+0,3.06e-1,
5.610000e+0,3.08e-1,
5.612000e+0,3.08e-1,
5.614000e+0,3.08e-1,
5.616000e+0,3.08e-1,
5.618000e+0,3.12e-1,
5.620000e+0,3.12e-1,
5.622000e+0,3.12e-1,
5.624000e+0,3.12e-1,
5.626000e+0,3.16e-1,
5.628000e+0,3.16e-1,
5.630000e+0,3.20e-1,
5.632000e+0,3.20e-1,
5.634000e+0,3.20e-1,
5.636000e+0,3.20e-1,
5.638000e+0,3.24e-1,
5.640000e+0,3.24e-1,
5.642000e+0,3.26e-1,
5.644000e+0,3.26e-1,
5.646000e+0,3.32e-1,
5.648000e+0,3.32e-1,
5.650000e+0,3.34e-1,
5.652000e+0,3.34e-1,
5.654000e+0,3.38e-1,
5.656000e+0,3.38e-1,
5.658000e+0,3.42e-1,
5.660000e+0,3.42e-1,
5.662000e+0,3.44e-1,
5.664000e+0,3.44e-1,
5.666000e+0,3.46e-1,
5.668000e+0,3.46e-1,
5.670000e+0,3.50e-1,
5.672000e+0,3.50e-1,
5.674000e+0,3.54e-1,
5.676000e+0,3.54e-1,
5.678000e+0,3.58e-1,
5.680000e+0,3.58e-1,
5.682000e+0,3.58e-1,
5.684000e+0,3.58e-1,
5.686000e+0,3.64e-1,
5.688000e+0,3.64e-1,
5.690000e+0,3.64e-1,
5.692000e+0,3.64e-1,
5.694000e+0,3.68e-1,
5.696000e+0,3.68e-1,
5.698000e+0,3.68e-1,
5.700000e+0,3.68e-1,
5.702000e+0,3.72e-1,
5.704000e+0,3.72e-1,
5.706000e+0,3.72e-1,
5.708000e+0,3.72e-1,
5.710000e+0,3.76e-1,
5.712000e+0,3.76e-1,
5.714000e+0,3.76e-1,
5.716000e+0,3.76e-1,
5.718000e+0,3.78e-1,
5.720000e+0,3.78e-1,
5.722000e+0,3.80e-1,
5.724000e+0,3.80e-1,
5.726000e+0,3.78e-1,
5.728000e+0,3.78e-1,
5.730000e+0,3.80e-1,
5.732000e+0,3.80e-1,
5.734000e+0,3.82e-1,
5.736000e+0,3.82e-1,
5.738000e+0,3.80e-1,
5.740000e+0,3.80e-1,
5.742000e+0,3.82e-1,
5.744000e+0,3.82e-1,
5.746000e+0,3.84e-1,
5.748000e+0,3.84e-1,
5.750000e+0,3.82e-1,
5.752000e+0,3.82e-1,
5.754000e+0,3.84e-1,
5.756000e+0,3.84e-1,
5.758000e+0,3.84e-1,
5.760000e+0,3.84e-1,
5.762000e+0,3.84e-1,
5.764000e+0,3.84e-1,
5.766000e+0,3.86e-1,
5.768000e+0,3.86e-1,
5.770000e+0,3.84e-1,
5.772000e+0,3.84e-1,
5.774000e+0,3.84e-1,
5.776000e+0,3.84e-1,
5.778000e+0,3.86e-1,
5.780000e+0,3.86e-1,
5.782000e+0,3.88e-1,
5.784000e+0,3.88e-1,
5.786000e+0,3.86e-1,
5.788000e+0,3.86e-1,
5.790000e+0,3.84e-1,
5.792000e+0,3.84e-1,
5.794000e+0,3.86e-1,
5.796000e+0,3.86e-1,
5.798000e+0,3.86e-1,
5.800000e+0,3.86e-1,
5.802000e+0,3.88e-1,
5.804000e+0,3.88e-1,
5.806000e+0,3.88e-1,
5.808000e+0,3.88e-1,
5.810000e+0,3.88e-1,
5.812000e+0,3.88e-1,
5.814000e+0,3.88e-1,
5.816000e+0,3.88e-1,
5.818000e+0,3.88e-1,
5.820000e+0,3.88e-1,
5.822000e+0,3.86e-1,
5.824000e+0,3.86e-1,
5.826000e+0,3.88e-1,
5.828000e+0,3.88e-1,
5.830000e+0,3.88e-1,
5.832000e+0,3.88e-1,
5.834000e+0,3.88e-1,
5.836000e+0,3.88e-1,
5.838000e+0,3.88e-1,
5.840000e+0,3.88e-1,
5.842000e+0,3.88e-1,
5.844000e+0,3.88e-1,
5.846000e+0,3.88e-1,
5.848000e+0,3.88e-1,
5.850000e+0,3.88e-1,
5.852000e+0,3.88e-1,
5.854000e+0,3.88e-1,
5.856000e+0,3.88e-1,
5.858000e+0,3.88e-1,
5.860000e+0,3.88e-1,
5.862000e+0,3.90e-1,
5.864000e+0,3.90e-1,
5.866000e+0,3.88e-1,
5.868000e+0,3.88e-1,
5.870000e+0,3.86e-1,
5.872000e+0,3.86e-1,
5.874000e+0,3.88e-1,
5.876000e+0,3.88e-1,
5.878000e+0,3.90e-1,
5.880000e+0,3.90e-1,
5.882000e+0,3.90e-1,
5.884000e+0,3.90e-1,
5.886000e+0,3.88e-1,
5.888000e+0,3.88e-1,
5.890000e+0,3.90e-1,
5.892000e+0,3.90e-1,
5.894000e+0,3.88e-1,
5.896000e+0,3.88e-1,
5.898000e+0,3.88e-1,
5.900000e+0,3.88e-1,
5.902000e+0,3.90e-1,
5.904000e+0,3.90e-1,
5.906000e+0,3.92e-1,
5.908000e+0,3.92e-1,
5.910000e+0,3.88e-1,
5.912000e+0,3.88e-1,
5.914000e+0,3.90e-1,
5.916000e+0,3.90e-1,
5.918000e+0,3.92e-1,
5.920000e+0,3.92e-1,
5.922000e+0,3.92e-1,
5.924000e+0,3.92e-1,
5.926000e+0,3.92e-1,
5.928000e+0,3.92e-1,
5.930000e+0,3.90e-1,
5.932000e+0,3.90e-1,
5.934000e+0,3.92e-1,
5.936000e+0,3.92e-1,
5.938000e+0,3.90e-1,
5.940000e+0,3.90e-1,
5.942000e+0,3.90e-1,
5.944000e+0,3.90e-1,
5.946000e+0,3.90e-1,
5.948000e+0,3.90e-1,
5.950000e+0,3.90e-1,
5.952000e+0,3.90e-1,
5.954000e+0,3.90e-1,
5.956000e+0,3.90e-1,
5.958000e+0,3.90e-1,
5.960000e+0,3.90e-1,
5.962000e+0,3.90e-1,
5.964000e+0,3.90e-1,
5.966000e+0,3.90e-1,
5.968000e+0,3.90e-1,
5.970000e+0,3.90e-1,
5.972000e+0,3.90e-1,
5.974000e+0,3.90e-1,
5.976000e+0,3.90e-1,
5.978000e+0,3.92e-1,
5.980000e+0,3.92e-1,
5.982000e+0,3.92e-1,
5.984000e+0,3.92e-1,
5.986000e+0,3.92e-1,
5.988000e+0,3.92e-1,
5.990000e+0,3.90e-1,
5.992000e+0,3.90e-1,
5.994000e+0,3.94e-1,
5.996000e+0,3.94e-1,
5.998000e+0,3.92e-1,
6.000000e+0,3.92e-1,
6.002000e+0,3.92e-1,
6.004000e+0,3.92e-1,
6.006000e+0,3.92e-1,
6.008000e+0,3.92e-1,
6.010000e+0,3.92e-1,
6.012000e+0,3.92e-1,
6.014000e+0,3.92e-1,
6.016000e+0,3.92e-1,
6.018000e+0,3.92e-1,
6.020000e+0,3.92e-1,
6.022000e+0,3.92e-1,
6.024000e+0,3.92e-1,
6.026000e+0,3.92e-1,
6.028000e+0,3.92e-1,
6.030000e+0,3.90e-1,
6.032000e+0,3.90e-1,
6.034000e+0,3.90e-1,
6.036000e+0,3.90e-1,
6.038000e+0,3.92e-1,
6.040000e+0,3.92e-1,
6.042000e+0,3.92e-1,
6.044000e+0,3.92e-1,
6.046000e+0,3.92e-1,
6.048000e+0,3.92e-1,
6.050000e+0,3.90e-1,
6.052000e+0,3.90e-1,
6.054000e+0,3.92e-1,
6.056000e+0,3.92e-1,
6.058000e+0,3.92e-1,
6.060000e+0,3.92e-1,
6.062000e+0,3.90e-1,
6.064000e+0,3.90e-1,
6.066000e+0,3.92e-1,
6.068000e+0,3.92e-1,
6.070000e+0,3.90e-1,
6.072000e+0,3.90e-1,
6.074000e+0,3.92e-1,
6.076000e+0,3.92e-1,
6.078000e+0,3.90e-1,
6.080000e+0,3.90e-1,
6.082000e+0,3.88e-1,
6.084000e+0,3.88e-1,
6.086000e+0,3.90e-1,
6.088000e+0,3.90e-1,
6.090000e+0,3.92e-1,
6.092000e+0,3.92e-1,
6.094000e+0,3.92e-1,
6.096000e+0,3.92e-1,
6.098000e+0,3.90e-1,
6.100000e+0,3.90e-1,
6.102000e+0,3.90e-1,
6.104000e+0,3.90e-1,
6.106000e+0,3.90e-1,
6.108000e+0,3.90e-1,
6.110000e+0,3.90e-1,
6.112000e+0,3.90e-1,
6.114000e+0,3.90e-1,
6.116000e+0,3.90e-1,
6.118000e+0,3.92e-1,
6.120000e+0,3.92e-1,
6.122000e+0,3.90e-1,
6.124000e+0,3.90e-1,
6.126000e+0,3.88e-1,
6.128000e+0,3.88e-1,
6.130000e+0,3.90e-1,
6.132000e+0,3.90e-1,
6.134000e+0,3.88e-1,
6.136000e+0,3.88e-1,
6.138000e+0,3.90e-1,
6.140000e+0,3.90e-1,
6.142000e+0,3.90e-1,
6.144000e+0,3.90e-1,
6.146000e+0,3.88e-1,
6.148000e+0,3.88e-1,
6.150000e+0,3.88e-1,
6.152000e+0,3.88e-1,
6.154000e+0,3.88e-1,
6.156000e+0,3.88e-1,
6.158000e+0,3.90e-1,
6.160000e+0,3.90e-1,
6.162000e+0,3.88e-1,
6.164000e+0,3.88e-1,
6.166000e+0,3.88e-1,
6.168000e+0,3.88e-1,
6.170000e+0,3.88e-1,
6.172000e+0,3.88e-1,
6.174000e+0,3.88e-1,
6.176000e+0,3.88e-1,
6.178000e+0,3.88e-1,
6.180000e+0,3.88e-1,
6.182000e+0,3.90e-1,
6.184000e+0,3.90e-1,
6.186000e+0,3.88e-1,
6.188000e+0,3.88e-1,
6.190000e+0,3.88e-1,
6.192000e+0,3.88e-1,
6.194000e+0,3.90e-1,
6.196000e+0,3.90e-1,
6.198000e+0,3.88e-1,
6.200000e+0,3.88e-1,
6.202000e+0,3.88e-1,
6.204000e+0,3.88e-1,
6.206000e+0,3.88e-1,
6.208000e+0,3.88e-1,
6.210000e+0,3.88e-1,
6.212000e+0,3.88e-1,
6.214000e+0,3.88e-1,
6.216000e+0,3.88e-1,
6.218000e+0,3.88e-1,
6.220000e+0,3.88e-1,
6.222000e+0,3.88e-1,
6.224000e+0,3.88e-1,
6.226000e+0,3.86e-1,
6.228000e+0,3.86e-1,
6.230000e+0,3.88e-1,
6.232000e+0,3.88e-1,
6.234000e+0,3.86e-1,
6.236000e+0,3.86e-1,
6.238000e+0,3.88e-1,
6.240000e+0,3.88e-1,
6.242000e+0,3.86e-1,
6.244000e+0,3.86e-1,
6.246000e+0,3.88e-1,
6.248000e+0,3.88e-1,
6.250000e+0,3.88e-1,
6.252000e+0,3.88e-1,
6.254000e+0,3.88e-1,
6.256000e+0,3.88e-1,
6.258000e+0,3.86e-1,
6.260000e+0,3.86e-1,
6.262000e+0,3.86e-1,
6.264000e+0,3.86e-1,
6.266000e+0,3.88e-1,
6.268000e+0,3.88e-1,
6.270000e+0,3.86e-1,
6.272000e+0,3.86e-1,
6.274000e+0,3.86e-1,
6.276000e+0,3.86e-1,
6.278000e+0,3.88e-1,
6.280000e+0,3.88e-1,
6.282000e+0,3.86e-1,
6.284000e+0,3.86e-1,
6.286000e+0,3.86e-1,
6.288000e+0,3.86e-1,
6.290000e+0,3.86e-1,
6.292000e+0,3.86e-1,
6.294000e+0,3.84e-1,
6.296000e+0,3.84e-1,
6.298000e+0,3.88e-1,
6.300000e+0,3.88e-1,
6.302000e+0,3.86e-1,
6.304000e+0,3.86e-1,
6.306000e+0,3.86e-1,
6.308000e+0,3.86e-1,
6.310000e+0,3.86e-1,
6.312000e+0,3.86e-1,
6.314000e+0,3.86e-1,
6.316000e+0,3.86e-1,
6.318000e+0,3.84e-1,
6.320000e+0,3.84e-1,
6.322000e+0,3.86e-1,
6.324000e+0,3.86e-1,
6.326000e+0,3.86e-1,
6.328000e+0,3.86e-1,
6.330000e+0,3.86e-1,
6.332000e+0,3.86e-1,
6.334000e+0,3.84e-1,
6.336000e+0,3.84e-1,
6.338000e+0,3.84e-1,
6.340000e+0,3.84e-1,
6.342000e+0,3.82e-1,
6.344000e+0,3.82e-1,
6.346000e+0,3.84e-1,
6.348000e+0,3.84e-1,
6.350000e+0,3.86e-1,
6.352000e+0,3.86e-1,
6.354000e+0,3.84e-1,
6.356000e+0,3.84e-1,
6.358000e+0,3.84e-1,
6.360000e+0,3.84e-1,
6.362000e+0,3.82e-1,
6.364000e+0,3.82e-1,
6.366000e+0,3.80e-1,
6.368000e+0,3.80e-1,
6.370000e+0,3.80e-1,
6.372000e+0,3.80e-1,
6.374000e+0,3.82e-1,
6.376000e+0,3.82e-1,
6.378000e+0,3.80e-1,
6.380000e+0,3.80e-1,
6.382000e+0,3.82e-1,
6.384000e+0,3.82e-1,
6.386000e+0,3.80e-1,
6.388000e+0,3.80e-1,
6.390000e+0,3.82e-1,
6.392000e+0,3.82e-1,
6.394000e+0,3.82e-1,
6.396000e+0,3.82e-1,
6.398000e+0,3.80e-1,
6.400000e+0,3.80e-1,
6.402000e+0,3.76e-1,
6.404000e+0,3.76e-1,
6.406000e+0,3.76e-1,
6.408000e+0,3.76e-1,
6.410000e+0,3.76e-1,
6.412000e+0,3.76e-1,
6.414000e+0,3.74e-1,
6.416000e+0,3.74e-1,
6.418000e+0,3.74e-1,
6.420000e+0,3.74e-1,
6.422000e+0,3.72e-1,
6.424000e+0,3.72e-1,
6.426000e+0,3.72e-1,
6.428000e+0,3.72e-1,
6.430000e+0,3.68e-1,
6.432000e+0,3.68e-1,
6.434000e+0,3.68e-1,
6.436000e+0,3.68e-1,
6.438000e+0,3.64e-1,
6.440000e+0,3.64e-1,
6.442000e+0,3.64e-1,
6.444000e+0,3.64e-1,
6.446000e+0,3.60e-1,
6.448000e+0,3.60e-1,
6.450000e+0,3.58e-1,
6.452000e+0,3.58e-1,
6.454000e+0,3.58e-1,
6.456000e+0,3.58e-1,
6.458000e+0,3.54e-1,
6.460000e+0,3.54e-1,
6.462000e+0,3.52e-1,
6.464000e+0,3.52e-1,
6.466000e+0,3.48e-1,
6.468000e+0,3.48e-1,
6.470000e+0,3.48e-1,
6.472000e+0,3.48e-1,
6.474000e+0,3.44e-1,
6.476000e+0,3.44e-1,
6.478000e+0,3.42e-1,
6.480000e+0,3.42e-1,
6.482000e+0,3.36e-1,
6.484000e+0,3.36e-1,
6.486000e+0,3.36e-1,
6.488000e+0,3.36e-1,
6.490000e+0,3.32e-1,
6.492000e+0,3.32e-1,
6.494000e+0,3.30e-1,
6.496000e+0,3.30e-1,
6.498000e+0,3.26e-1,
6.500000e+0,3.26e-1,
6.502000e+0,3.22e-1,
6.504000e+0,3.22e-1,
6.506000e+0,3.22e-1,
6.508000e+0,3.22e-1,
6.510000e+0,3.18e-1,
6.512000e+0,3.18e-1,
6.514000e+0,3.14e-1,
6.516000e+0,3.14e-1,
6.518000e+0,3.14e-1,
6.520000e+0,3.14e-1,
6.522000e+0,3.10e-1,
6.524000e+0,3.10e-1,
6.526000e+0,3.10e-1,
6.528000e+0,3.10e-1,
6.530000e+0,3.06e-1,
6.532000e+0,3.06e-1,
6.534000e+0,3.06e-1,
6.536000e+0,3.06e-1,
6.538000e+0,3.06e-1,
6.540000e+0,3.06e-1,
6.542000e+0,3.04e-1,
6.544000e+0,3.04e-1,
6.546000e+0,3.04e-1,
6.548000e+0,3.04e-1,
6.550000e+0,3.04e-1,
6.552000e+0,3.04e-1,
6.554000e+0,3.04e-1,
6.556000e+0,3.04e-1,
6.558000e+0,3.06e-1,
6.560000e+0,3.06e-1,
6.562000e+0,3.06e-1,
6.564000e+0,3.06e-1,
6.566000e+0,3.06e-1,
6.568000e+0,3.06e-1,
6.570000e+0,3.10e-1,
6.572000e+0,3.10e-1,
6.574000e+0,3.14e-1,
6.576000e+0,3.14e-1,
6.578000e+0,3.16e-1,
6.580000e+0,3.16e-1,
6.582000e+0,3.16e-1,
6.584000e+0,3.16e-1,
6.586000e+0,3.22e-1,
6.588000e+0,3.22e-1,
6.590000e+0,3.24e-1,
6.592000e+0,3.24e-1,
6.594000e+0,3.28e-1,
6.596000e+0,3.28e-1,
6.598000e+0,3.30e-1,
6.600000e+0,3.30e-1,
6.602000e+0,3.34e-1,
6.604000e+0,3.34e-1,
6.606000e+0,3.38e-1,
6.608000e+0,3.38e-1,
6.610000e+0,3.42e-1,
6.612000e+0,3.42e-1,
6.614000e+0,3.46e-1,
6.616000e+0,3.46e-1,
6.618000e+0,3.48e-1,
6.620000e+0,3.48e-1,
6.622000e+0,3.52e-1,
6.624000e+0,3.52e-1,
6.626000e+0,3.52e-1,
6.628000e+0,3.52e-1,
6.630000e+0,3.56e-1,
6.632000e+0,3.56e-1,
6.634000e+0,3.58e-1,
6.636000e+0,3.58e-1,
6.638000e+0,3.58e-1,
6.640000e+0,3.58e-1,
6.642000e+0,3.60e-1,
6.644000e+0,3.60e-1,
6.646000e+0,3.62e-1,
6.648000e+0,3.62e-1,
6.650000e+0,3.62e-1,
6.652000e+0,3.62e-1,
6.654000e+0,3.64e-1,
6.656000e+0,3.64e-1,
6.658000e+0,3.62e-1,
6.660000e+0,3.62e-1,
6.662000e+0,3.64e-1,
6.664000e+0,3.64e-1,
6.666000e+0,3.60e-1,
6.668000e+0,3.60e-1,
6.670000e+0,3.60e-1,
6.672000e+0,3.60e-1,
6.674000e+0,3.58e-1,
6.676000e+0,3.58e-1,
6.678000e+0,3.56e-1,
6.680000e+0,3.56e-1,
6.682000e+0,3.52e-1,
6.684000e+0,3.52e-1,
6.686000e+0,3.48e-1,
6.688000e+0,3.48e-1,
6.690000e+0,3.42e-1,
6.692000e+0,3.42e-1,
6.694000e+0,3.40e-1,
6.696000e+0,3.40e-1,
6.698000e+0,3.32e-1,
6.700000e+0,3.32e-1,
6.702000e+0,3.24e-1,
6.704000e+0,3.24e-1,
6.706000e+0,3.18e-1,
6.708000e+0,3.18e-1,
6.710000e+0,3.14e-1,
6.712000e+0,3.14e-1,
6.714000e+0,3.08e-1,
6.716000e+0,3.08e-1,
6.718000e+0,2.96e-1,
6.720000e+0,2.96e-1,
6.722000e+0,2.88e-1,
6.724000e+0,2.88e-1,
6.726000e+0,2.82e-1,
6.728000e+0,2.82e-1,
6.730000e+0,2.70e-1,
6.732000e+0,2.70e-1,
6.734000e+0,2.62e-1,
6.736000e+0,2.62e-1,
6.738000e+0,2.58e-1,
6.740000e+0,2.58e-1,
6.742000e+0,2.50e-1,
6.744000e+0,2.50e-1,
6.746000e+0,2.40e-1,
6.748000e+0,2.40e-1,
6.750000e+0,2.32e-1,
6.752000e+0,2.32e-1,
6.754000e+0,2.28e-1,
6.756000e+0,2.28e-1,
6.758000e+0,2.22e-1,
6.760000e+0,2.22e-1,
6.762000e+0,2.18e-1,
6.764000e+0,2.18e-1,
6.766000e+0,2.16e-1,
6.768000e+0,2.16e-1,
6.770000e+0,2.08e-1,
6.772000e+0,2.08e-1,
6.774000e+0,2.10e-1,
6.776000e+0,2.10e-1,
6.778000e+0,2.08e-1,
6.780000e+0,2.08e-1,
6.782000e+0,2.08e-1,
6.784000e+0,2.08e-1,
6.786000e+0,2.08e-1,
6.788000e+0,2.08e-1,
6.790000e+0,2.06e-1,
6.792000e+0,2.06e-1,
6.794000e+0,2.08e-1,
6.796000e+0,2.08e-1,
6.798000e+0,2.12e-1,
6.800000e+0,2.12e-1,
6.802000e+0,2.14e-1,
6.804000e+0,2.14e-1,
6.806000e+0,2.20e-1,
6.808000e+0,2.20e-1,
6.810000e+0,2.26e-1,
6.812000e+0,2.26e-1,
6.814000e+0,2.34e-1,
6.816000e+0,2.34e-1,
6.818000e+0,2.38e-1,
6.820000e+0,2.38e-1,
6.822000e+0,2.46e-1,
6.824000e+0,2.46e-1,
6.826000e+0,2.54e-1,
6.828000e+0,2.54e-1,
6.830000e+0,2.62e-1,
6.832000e+0,2.62e-1,
6.834000e+0,2.70e-1,
6.836000e+0,2.70e-1,
6.838000e+0,2.76e-1,
6.840000e+0,2.76e-1,
6.842000e+0,2.86e-1,
6.844000e+0,2.86e-1,
6.846000e+0,2.94e-1,
6.848000e+0,2.94e-1,
6.850000e+0,3.04e-1,
6.852000e+0,3.04e-1,
6.854000e+0,3.10e-1,
6.856000e+0,3.10e-1,
6.858000e+0,3.16e-1,
6.860000e+0,3.16e-1,
6.862000e+0,3.24e-1,
6.864000e+0,3.24e-1,
6.866000e+0,3.28e-1,
6.868000e+0,3.28e-1,
6.870000e+0,3.36e-1,
6.872000e+0,3.36e-1,
6.874000e+0,3.42e-1,
6.876000e+0,3.42e-1,
6.878000e+0,3.46e-1,
6.880000e+0,3.46e-1,
6.882000e+0,3.50e-1,
6.884000e+0,3.50e-1,
6.886000e+0,3.54e-1,
6.888000e+0,3.54e-1,
6.890000e+0,3.56e-1,
6.892000e+0,3.56e-1,
6.894000e+0,3.58e-1,
6.896000e+0,3.58e-1,
6.898000e+0,3.60e-1,
6.900000e+0,3.60e-1,
6.902000e+0,3.64e-1,
6.904000e+0,3.64e-1,
6.906000e+0,3.64e-1,
6.908000e+0,3.64e-1,
6.910000e+0,3.66e-1,
6.912000e+0,3.66e-1,
6.914000e+0,3.66e-1,
6.916000e+0,3.66e-1,
6.918000e+0,3.66e-1,
6.920000e+0,3.66e-1,
6.922000e+0,3.68e-1,
6.924000e+0,3.68e-1,
6.926000e+0,3.68e-1,
6.928000e+0,3.68e-1,
6.930000e+0,3.68e-1,
6.932000e+0,3.68e-1,
6.934000e+0,3.70e-1,
6.936000e+0,3.70e-1,
6.938000e+0,3.66e-1,
6.940000e+0,3.66e-1,
6.942000e+0,3.70e-1,
6.944000e+0,3.70e-1,
6.946000e+0,3.68e-1,
6.948000e+0,3.68e-1,
6.950000e+0,3.70e-1,
6.952000e+0,3.70e-1,
6.954000e+0,3.70e-1,
6.956000e+0,3.70e-1,
6.958000e+0,3.70e-1,
6.960000e+0,3.70e-1,
6.962000e+0,3.68e-1,
6.964000e+0,3.68e-1,
6.966000e+0,3.68e-1,
6.968000e+0,3.68e-1,
6.970000e+0,3.70e-1,
6.972000e+0,3.70e-1,
6.974000e+0,3.68e-1,
6.976000e+0,3.68e-1,
6.978000e+0,3.68e-1,
6.980000e+0,3.68e-1,
6.982000e+0,3.70e-1,
6.984000e+0,3.70e-1,
6.986000e+0,3.70e-1,
6.988000e+0,3.70e-1,
6.990000e+0,3.68e-1,
6.992000e+0,3.68e-1,
6.994000e+0,3.68e-1,
6.996000e+0,3.68e-1,
6.998000e+0,3.68e-1,
7.000000e+0,3.68e-1,
7.002000e+0,3.66e-1,
7.004000e+0,3.66e-1,
7.006000e+0,3.68e-1,
7.008000e+0,3.68e-1,
7.010000e+0,3.68e-1,
7.012000e+0,3.68e-1,
7.014000e+0,3.68e-1,
7.016000e+0,3.68e-1,
7.018000e+0,3.66e-1,
7.020000e+0,3.66e-1,
7.022000e+0,3.68e-1,
7.024000e+0,3.68e-1,
7.026000e+0,3.70e-1,
7.028000e+0,3.70e-1,
7.030000e+0,3.66e-1,
7.032000e+0,3.66e-1,
7.034000e+0,3.68e-1,
7.036000e+0,3.68e-1,
7.038000e+0,3.68e-1,
7.040000e+0,3.68e-1,
7.042000e+0,3.68e-1,
7.044000e+0,3.68e-1,
7.046000e+0,3.68e-1,
7.048000e+0,3.68e-1,
7.050000e+0,3.68e-1,
7.052000e+0,3.68e-1,
7.054000e+0,3.66e-1,
7.056000e+0,3.66e-1,
7.058000e+0,3.66e-1,
7.060000e+0,3.66e-1,
7.062000e+0,3.68e-1,
7.064000e+0,3.68e-1,
7.066000e+0,3.68e-1,
7.068000e+0,3.68e-1,
7.070000e+0,3.66e-1,
7.072000e+0,3.66e-1,
7.074000e+0,3.66e-1,
7.076000e+0,3.66e-1,
7.078000e+0,3.66e-1,
7.080000e+0,3.66e-1,
7.082000e+0,3.64e-1,
7.084000e+0,3.64e-1,
7.086000e+0,3.66e-1,
7.088000e+0,3.66e-1,
7.090000e+0,3.66e-1,
7.092000e+0,3.66e-1,
7.094000e+0,3.64e-1,
7.096000e+0,3.64e-1,
7.098000e+0,3.64e-1,
7.100000e+0,3.64e-1,
7.102000e+0,3.66e-1,
7.104000e+0,3.66e-1,
7.106000e+0,3.64e-1,
7.108000e+0,3.64e-1,
7.110000e+0,3.66e-1,
7.112000e+0,3.66e-1,
7.114000e+0,3.64e-1,
7.116000e+0,3.64e-1,
7.118000e+0,3.64e-1,
7.120000e+0,3.64e-1,
7.122000e+0,3.64e-1,
7.124000e+0,3.64e-1,
7.126000e+0,3.64e-1,
7.128000e+0,3.64e-1,
7.130000e+0,3.66e-1,
7.132000e+0,3.66e-1,
7.134000e+0,3.66e-1,
7.136000e+0,3.66e-1,
7.138000e+0,3.66e-1,
7.140000e+0,3.66e-1,
7.142000e+0,3.62e-1,
7.144000e+0,3.62e-1,
7.146000e+0,3.64e-1,
7.148000e+0,3.64e-1,
7.150000e+0,3.64e-1,
7.152000e+0,3.64e-1,
7.154000e+0,3.64e-1,
7.156000e+0,3.64e-1,
7.158000e+0,3.62e-1,
7.160000e+0,3.62e-1,
7.162000e+0,3.64e-1,
7.164000e+0,3.64e-1,
7.166000e+0,3.62e-1,
7.168000e+0,3.62e-1,
7.170000e+0,3.64e-1,
7.172000e+0,3.64e-1,
7.174000e+0,3.64e-1,
7.176000e+0,3.64e-1,
7.178000e+0,3.64e-1,
7.180000e+0,3.64e-1,
7.182000e+0,3.62e-1,
7.184000e+0,3.62e-1,
7.186000e+0,3.64e-1,
7.188000e+0,3.64e-1,
7.190000e+0,3.66e-1,
7.192000e+0,3.66e-1,
7.194000e+0,3.62e-1,
7.196000e+0,3.62e-1,
7.198000e+0,3.60e-1,
7.200000e+0,3.60e-1,
7.202000e+0,3.64e-1,
7.204000e+0,3.64e-1,
7.206000e+0,3.62e-1,
7.208000e+0,3.62e-1,
7.210000e+0,3.64e-1,
7.212000e+0,3.64e-1,
7.214000e+0,3.62e-1,
7.216000e+0,3.62e-1,
7.218000e+0,3.62e-1,
7.220000e+0,3.62e-1,
7.222000e+0,3.60e-1,
7.224000e+0,3.60e-1,
7.226000e+0,3.62e-1,
7.228000e+0,3.62e-1,
7.230000e+0,3.60e-1,
7.232000e+0,3.60e-1,
7.234000e+0,3.60e-1,
7.236000e+0,3.60e-1,
7.238000e+0,3.60e-1,
7.240000e+0,3.60e-1,
7.242000e+0,3.56e-1,
7.244000e+0,3.56e-1,
7.246000e+0,3.60e-1,
7.248000e+0,3.60e-1,
7.250000e+0,3.56e-1,
7.252000e+0,3.56e-1,
7.254000e+0,3.56e-1,
7.256000e+0,3.56e-1,
7.258000e+0,3.56e-1,
7.260000e+0,3.56e-1,
7.262000e+0,3.52e-1,
7.264000e+0,3.52e-1,
7.266000e+0,3.48e-1,
7.268000e+0,3.48e-1,
7.270000e+0,3.48e-1,
7.272000e+0,3.48e-1,
7.274000e+0,3.44e-1,
7.276000e+0,3.44e-1,
7.278000e+0,3.40e-1,
7.280000e+0,3.40e-1,
7.282000e+0,3.38e-1,
7.284000e+0,3.38e-1,
7.286000e+0,3.30e-1,
7.288000e+0,3.30e-1,
7.290000e+0,3.28e-1,
7.292000e+0,3.28e-1,
7.294000e+0,3.24e-1,
7.296000e+0,3.24e-1,
7.298000e+0,3.18e-1,
7.300000e+0,3.18e-1,
7.302000e+0,3.14e-1,
7.304000e+0,3.14e-1,
7.306000e+0,3.08e-1,
7.308000e+0,3.08e-1,
7.310000e+0,3.00e-1,
7.312000e+0,3.00e-1,
7.314000e+0,2.96e-1,
7.316000e+0,2.96e-1,
7.318000e+0,2.88e-1,
7.320000e+0,2.88e-1,
7.322000e+0,2.80e-1,
7.324000e+0,2.80e-1,
7.326000e+0,2.76e-1,
7.328000e+0,2.76e-1,
7.330000e+0,2.70e-1,
7.332000e+0,2.70e-1,
7.334000e+0,2.66e-1,
7.336000e+0,2.66e-1,
7.338000e+0,2.58e-1,
7.340000e+0,2.58e-1,
7.342000e+0,2.54e-1,
7.344000e+0,2.54e-1,
7.346000e+0,2.52e-1,
7.348000e+0,2.52e-1,
7.350000e+0,2.46e-1,
7.352000e+0,2.46e-1,
7.354000e+0,2.42e-1,
7.356000e+0,2.42e-1,
7.358000e+0,2.44e-1,
7.360000e+0,2.44e-1,
7.362000e+0,2.40e-1,
7.364000e+0,2.40e-1,
7.366000e+0,2.40e-1,
7.368000e+0,2.40e-1,
7.370000e+0,2.40e-1,
7.372000e+0,2.40e-1,
7.374000e+0,2.42e-1,
7.376000e+0,2.42e-1,
7.378000e+0,2.42e-1,
7.380000e+0,2.42e-1,
7.382000e+0,2.46e-1,
7.384000e+0,2.46e-1,
7.386000e+0,2.50e-1,
7.388000e+0,2.50e-1,
7.390000e+0,2.54e-1,
7.392000e+0,2.54e-1,
7.394000e+0,2.54e-1,
7.396000e+0,2.54e-1,
7.398000e+0,2.60e-1,
7.400000e+0,2.60e-1,
7.402000e+0,2.66e-1,
7.404000e+0,2.66e-1,
7.406000e+0,2.76e-1,
7.408000e+0,2.76e-1,
7.410000e+0,2.78e-1,
7.412000e+0,2.78e-1,
7.414000e+0,2.86e-1,
7.416000e+0,2.86e-1,
7.418000e+0,2.90e-1,
7.420000e+0,2.90e-1,
7.422000e+0,2.98e-1,
7.424000e+0,2.98e-1,
7.426000e+0,3.02e-1,
7.428000e+0,3.02e-1,
7.430000e+0,3.06e-1,
7.432000e+0,3.06e-1,
7.434000e+0,3.14e-1,
7.436000e+0,3.14e-1,
7.438000e+0,3.20e-1,
7.440000e+0,3.20e-1,
7.442000e+0,3.24e-1,
7.444000e+0,3.24e-1,
7.446000e+0,3.28e-1,
7.448000e+0,3.28e-1,
7.450000e+0,3.34e-1,
7.452000e+0,3.34e-1,
7.454000e+0,3.38e-1,
7.456000e+0,3.38e-1,
7.458000e+0,3.40e-1,
7.460000e+0,3.40e-1,
7.462000e+0,3.44e-1,
7.464000e+0,3.44e-1,
7.466000e+0,3.44e-1,
7.468000e+0,3.44e-1,
7.470000e+0,3.46e-1,
7.472000e+0,3.46e-1,
7.474000e+0,3.48e-1,
7.476000e+0,3.48e-1,
7.478000e+0,3.48e-1,
7.480000e+0,3.48e-1,
7.482000e+0,3.52e-1,
7.484000e+0,3.52e-1,
7.486000e+0,3.52e-1,
7.488000e+0,3.52e-1,
7.490000e+0,3.52e-1,
7.492000e+0,3.52e-1,
7.494000e+0,3.52e-1,
7.496000e+0,3.52e-1,
7.498000e+0,3.54e-1,
7.500000e+0,3.54e-1,
7.502000e+0,3.54e-1,
7.504000e+0,3.54e-1,
7.506000e+0,3.54e-1,
7.508000e+0,3.54e-1,
7.510000e+0,3.56e-1,
7.512000e+0,3.56e-1,
7.514000e+0,3.54e-1,
7.516000e+0,3.54e-1,
7.518000e+0,3.54e-1,
7.520000e+0,3.54e-1,
7.522000e+0,3.56e-1,
7.524000e+0,3.56e-1,
7.526000e+0,3.54e-1,
7.528000e+0,3.54e-1,
7.530000e+0,3.56e-1,
7.532000e+0,3.56e-1,
7.534000e+0,3.56e-1,
7.536000e+0,3.56e-1,
7.538000e+0,3.54e-1,
7.540000e+0,3.54e-1,
7.542000e+0,3.54e-1,
7.544000e+0,3.54e-1,
7.546000e+0,3.56e-1,
7.548000e+0,3.56e-1,
7.550000e+0,3.56e-1,
7.552000e+0,3.56e-1,
7.554000e+0,3.54e-1,
7.556000e+0,3.54e-1,
7.558000e+0,3.54e-1,
7.560000e+0,3.54e-1,
7.562000e+0,3.54e-1,
7.564000e+0,3.54e-1,
7.566000e+0,3.56e-1,
7.568000e+0,3.56e-1,
7.570000e+0,3.54e-1,
7.572000e+0,3.54e-1,
7.574000e+0,3.56e-1,
7.576000e+0,3.56e-1,
7.578000e+0,3.54e-1,
7.580000e+0,3.54e-1,
7.582000e+0,3.56e-1,
7.584000e+0,3.56e-1,
7.586000e+0,3.52e-1,
7.588000e+0,3.52e-1,
7.590000e+0,3.54e-1,
7.592000e+0,3.54e-1,
7.594000e+0,3.54e-1,
7.596000e+0,3.54e-1,
7.598000e+0,3.56e-1,
7.600000e+0,3.56e-1,
7.602000e+0,3.52e-1,
7.604000e+0,3.52e-1,
7.606000e+0,3.52e-1,
7.608000e+0,3.52e-1,
7.610000e+0,3.52e-1,
7.612000e+0,3.52e-1,
7.614000e+0,3.54e-1,
7.616000e+0,3.54e-1,
7.618000e+0,3.54e-1,
7.620000e+0,3.54e-1,
7.622000e+0,3.50e-1,
7.624000e+0,3.50e-1,
7.626000e+0,3.52e-1,
7.628000e+0,3.52e-1,
7.630000e+0,3.52e-1,
7.632000e+0,3.52e-1,
7.634000e+0,3.52e-1,
7.636000e+0,3.52e-1,
7.638000e+0,3.52e-1,
7.640000e+0,3.52e-1,
7.642000e+0,3.50e-1,
7.644000e+0,3.50e-1,
7.646000e+0,3.50e-1,
7.648000e+0,3.50e-1,
7.650000e+0,3.52e-1,
7.652000e+0,3.52e-1,
7.654000e+0,3.52e-1,
7.656000e+0,3.52e-1,
7.658000e+0,3.52e-1,
7.660000e+0,3.52e-1,
7.662000e+0,3.52e-1,
7.664000e+0,3.52e-1,
7.666000e+0,3.52e-1,
7.668000e+0,3.52e-1,
7.670000e+0,3.52e-1,
7.672000e+0,3.52e-1,
7.674000e+0,3.50e-1,
7.676000e+0,3.50e-1,
7.678000e+0,3.50e-1,
7.680000e+0,3.50e-1,
7.682000e+0,3.52e-1,
7.684000e+0,3.52e-1,
7.686000e+0,3.50e-1,
7.688000e+0,3.50e-1,
7.690000e+0,3.50e-1,
7.692000e+0,3.50e-1,
7.694000e+0,3.52e-1,
7.696000e+0,3.52e-1,
7.698000e+0,3.52e-1,
7.700000e+0,3.52e-1,
7.702000e+0,3.50e-1,
7.704000e+0,3.50e-1,
7.706000e+0,3.50e-1,
7.708000e+0,3.50e-1,
7.710000e+0,3.50e-1,
7.712000e+0,3.50e-1,
7.714000e+0,3.52e-1,
7.716000e+0,3.52e-1,
7.718000e+0,3.48e-1,
7.720000e+0,3.48e-1,
7.722000e+0,3.48e-1,
7.724000e+0,3.48e-1,
7.726000e+0,3.50e-1,
7.728000e+0,3.50e-1,
7.730000e+0,3.50e-1,
7.732000e+0,3.50e-1,
7.734000e+0,3.48e-1,
7.736000e+0,3.48e-1,
7.738000e+0,3.48e-1,
7.740000e+0,3.48e-1,
7.742000e+0,3.48e-1,
7.744000e+0,3.48e-1,
7.746000e+0,3.48e-1,
7.748000e+0,3.48e-1,
7.750000e+0,3.46e-1,
7.752000e+0,3.46e-1,
7.754000e+0,3.46e-1,
7.756000e+0,3.46e-1,
7.758000e+0,3.46e-1,
7.760000e+0,3.46e-1,
7.762000e+0,3.46e-1,
7.764000e+0,3.46e-1,
7.766000e+0,3.44e-1,
7.768000e+0,3.44e-1,
7.770000e+0,3.42e-1,
7.772000e+0,3.42e-1,
7.774000e+0,3.42e-1,
7.776000e+0,3.42e-1,
7.778000e+0,3.42e-1,
7.780000e+0,3.42e-1,
7.782000e+0,3.40e-1,
7.784000e+0,3.40e-1,
7.786000e+0,3.38e-1,
7.788000e+0,3.38e-1,
7.790000e+0,3.36e-1,
7.792000e+0,3.36e-1,
7.794000e+0,3.32e-1,
7.796000e+0,3.32e-1,
7.798000e+0,3.30e-1,
7.800000e+0,3.30e-1,
7.802000e+0,3.26e-1,
7.804000e+0,3.26e-1,
7.806000e+0,3.26e-1,
7.808000e+0,3.26e-1,
7.810000e+0,3.24e-1,
7.812000e+0,3.24e-1,
7.814000e+0,3.22e-1,
7.816000e+0,3.22e-1,
7.818000e+0,3.18e-1,
7.820000e+0,3.18e-1,
7.822000e+0,3.18e-1,
7.824000e+0,3.18e-1,
7.826000e+0,3.16e-1,
7.828000e+0,3.16e-1,
7.830000e+0,3.16e-1,
7.832000e+0,3.16e-1,
7.834000e+0,3.10e-1,
7.836000e+0,3.10e-1,
7.838000e+0,3.10e-1,
7.840000e+0,3.10e-1,
7.842000e+0,3.10e-1,
7.844000e+0,3.10e-1,
7.846000e+0,3.08e-1,
7.848000e+0,3.08e-1,
7.850000e+0,3.06e-1,
7.852000e+0,3.06e-1,
7.854000e+0,3.06e-1,
7.856000e+0,3.06e-1,
7.858000e+0,3.06e-1,
7.860000e+0,3.06e-1,
7.862000e+0,3.06e-1,
7.864000e+0,3.06e-1,
7.866000e+0,3.06e-1,
7.868000e+0,3.06e-1,
7.870000e+0,3.08e-1,
7.872000e+0,3.08e-1,
7.874000e+0,3.08e-1,
7.876000e+0,3.08e-1,
7.878000e+0,3.08e-1,
7.880000e+0,3.08e-1,
7.882000e+0,3.10e-1,
7.884000e+0,3.10e-1,
7.886000e+0,3.10e-1,
7.888000e+0,3.10e-1,
7.890000e+0,3.12e-1,
7.892000e+0,3.12e-1,
7.894000e+0,3.14e-1,
7.896000e+0,3.14e-1,
7.898000e+0,3.14e-1,
7.900000e+0,3.14e-1,
7.902000e+0,3.16e-1,
7.904000e+0,3.16e-1,
7.906000e+0,3.20e-1,
7.908000e+0,3.20e-1,
7.910000e+0,3.22e-1,
7.912000e+0,3.22e-1,
7.914000e+0,3.24e-1,
7.916000e+0,3.24e-1,
7.918000e+0,3.24e-1,
7.920000e+0,3.24e-1,
7.922000e+0,3.26e-1,
7.924000e+0,3.26e-1,
7.926000e+0,3.28e-1,
7.928000e+0,3.28e-1,
7.930000e+0,3.30e-1,
7.932000e+0,3.30e-1,
7.934000e+0,3.34e-1,
7.936000e+0,3.34e-1,
7.938000e+0,3.32e-1,
7.940000e+0,3.32e-1,
7.942000e+0,3.36e-1,
7.944000e+0,3.36e-1,
7.946000e+0,3.34e-1,
7.948000e+0,3.34e-1,
7.950000e+0,3.36e-1,
7.952000e+0,3.36e-1,
7.954000e+0,3.40e-1,
7.956000e+0,3.40e-1,
7.958000e+0,3.40e-1,
7.960000e+0,3.40e-1,
7.962000e+0,3.42e-1,
7.964000e+0,3.42e-1,
7.966000e+0,3.40e-1,
7.968000e+0,3.40e-1,
7.970000e+0,3.42e-1,
7.972000e+0,3.42e-1,
7.974000e+0,3.42e-1,
7.976000e+0,3.42e-1,
7.978000e+0,3.42e-1,
7.980000e+0,3.42e-1,
7.982000e+0,3.44e-1,
7.984000e+0,3.44e-1,
7.986000e+0,3.44e-1,
7.988000e+0,3.44e-1,
7.990000e+0,3.44e-1,
7.992000e+0,3.44e-1,
7.994000e+0,3.44e-1,
7.996000e+0,3.44e-1,
7.998000e+0,3.44e-1,
8.000000e+0,3.44e-1,
8.002000e+0,3.44e-1,
8.004000e+0,3.44e-1,
8.006000e+0,3.44e-1,
8.008000e+0,3.44e-1,
8.010000e+0,3.44e-1,
8.012000e+0,3.44e-1,
8.014000e+0,3.44e-1,
8.016000e+0,3.44e-1,
8.018000e+0,3.44e-1,
8.020000e+0,3.44e-1,
8.022000e+0,3.42e-1,
8.024000e+0,3.42e-1,
8.026000e+0,3.42e-1,
8.028000e+0,3.42e-1,
8.030000e+0,3.42e-1,
8.032000e+0,3.42e-1,
8.034000e+0,3.44e-1,
8.036000e+0,3.44e-1,
8.038000e+0,3.42e-1,
8.040000e+0,3.42e-1,
8.042000e+0,3.42e-1,
8.044000e+0,3.42e-1,
8.046000e+0,3.44e-1,
8.048000e+0,3.44e-1,
8.050000e+0,3.44e-1,
8.052000e+0,3.44e-1,
8.054000e+0,3.44e-1,
8.056000e+0,3.44e-1,
8.058000e+0,3.42e-1,
8.060000e+0,3.42e-1,
8.062000e+0,3.44e-1,
8.064000e+0,3.44e-1,
8.066000e+0,3.42e-1,
8.068000e+0,3.42e-1,
8.070000e+0,3.44e-1,
8.072000e+0,3.44e-1,
8.074000e+0,3.42e-1,
8.076000e+0,3.42e-1,
8.078000e+0,3.42e-1,
8.080000e+0,3.42e-1,
8.082000e+0,3.40e-1,
8.084000e+0,3.40e-1,
8.086000e+0,3.40e-1,
8.088000e+0,3.40e-1,
8.090000e+0,3.44e-1,
8.092000e+0,3.44e-1,
8.094000e+0,3.40e-1,
8.096000e+0,3.40e-1,
8.098000e+0,3.40e-1,
8.100000e+0,3.40e-1,
8.102000e+0,3.40e-1,
8.104000e+0,3.40e-1,
8.106000e+0,3.42e-1,
8.108000e+0,3.42e-1,
8.110000e+0,3.40e-1,
8.112000e+0,3.40e-1,
8.114000e+0,3.40e-1,
8.116000e+0,3.40e-1,
8.118000e+0,3.40e-1,
8.120000e+0,3.40e-1,
8.122000e+0,3.40e-1,
8.124000e+0,3.40e-1,
8.126000e+0,3.42e-1,
8.128000e+0,3.42e-1,
8.130000e+0,3.40e-1,
8.132000e+0,3.40e-1,
8.134000e+0,3.40e-1,
8.136000e+0,3.40e-1,
8.138000e+0,3.40e-1,
8.140000e+0,3.40e-1,
8.142000e+0,3.40e-1,
8.144000e+0,3.40e-1,
8.146000e+0,3.40e-1,
8.148000e+0,3.40e-1,
8.150000e+0,3.40e-1,
8.152000e+0,3.40e-1,
8.154000e+0,3.40e-1,
8.156000e+0,3.40e-1,
8.158000e+0,3.38e-1,
8.160000e+0,3.38e-1,
8.162000e+0,3.38e-1,
8.164000e+0,3.38e-1,
8.166000e+0,3.40e-1,
8.168000e+0,3.40e-1,
8.170000e+0,3.40e-1,
8.172000e+0,3.40e-1,
8.174000e+0,3.42e-1,
8.176000e+0,3.42e-1,
8.178000e+0,3.40e-1,
8.180000e+0,3.40e-1,
8.182000e+0,3.40e-1,
8.184000e+0,3.40e-1,
8.186000e+0,3.40e-1,
8.188000e+0,3.40e-1,
8.190000e+0,3.38e-1,
8.192000e+0,3.38e-1,
8.194000e+0,3.40e-1,
8.196000e+0,3.40e-1,
8.198000e+0,3.40e-1,
8.200000e+0,3.40e-1,
8.202000e+0,3.40e-1,
8.204000e+0,3.40e-1,
8.206000e+0,3.40e-1,
8.208000e+0,3.40e-1,
8.210000e+0,3.40e-1,
8.212000e+0,3.40e-1,
8.214000e+0,3.38e-1,
8.216000e+0,3.38e-1,
8.218000e+0,3.38e-1,
8.220000e+0,3.38e-1,
8.222000e+0,3.40e-1,
8.224000e+0,3.40e-1,
8.226000e+0,3.38e-1,
8.228000e+0,3.38e-1,
8.230000e+0,3.38e-1,
8.232000e+0,3.38e-1,
8.234000e+0,3.38e-1,
8.236000e+0,3.38e-1,
8.238000e+0,3.36e-1,
8.240000e+0,3.36e-1,
8.242000e+0,3.40e-1,
8.244000e+0,3.40e-1,
8.246000e+0,3.40e-1,
8.248000e+0,3.40e-1,
8.250000e+0,3.40e-1,
8.252000e+0,3.40e-1,
8.254000e+0,3.38e-1,
8.256000e+0,3.38e-1,
8.258000e+0,3.38e-1,
8.260000e+0,3.38e-1,
8.262000e+0,3.34e-1,
8.264000e+0,3.34e-1,
8.266000e+0,3.38e-1,
8.268000e+0,3.38e-1,
8.270000e+0,3.36e-1,
8.272000e+0,3.36e-1,
8.274000e+0,3.36e-1,
8.276000e+0,3.36e-1,
8.278000e+0,3.38e-1,
8.280000e+0,3.38e-1,
8.282000e+0,3.38e-1,
8.284000e+0,3.38e-1,
8.286000e+0,3.38e-1,
8.288000e+0,3.38e-1,
8.290000e+0,3.38e-1,
8.292000e+0,3.38e-1,
8.294000e+0,3.34e-1,
8.296000e+0,3.34e-1,
8.298000e+0,3.36e-1,
8.300000e+0,3.36e-1,
8.302000e+0,3.38e-1,
8.304000e+0,3.38e-1,
8.306000e+0,3.38e-1,
8.308000e+0,3.38e-1,
8.310000e+0,3.36e-1,
8.312000e+0,3.36e-1,
8.314000e+0,3.36e-1,
8.316000e+0,3.36e-1,
8.318000e+0,3.36e-1,
8.320000e+0,3.36e-1,
8.322000e+0,3.32e-1,
8.324000e+0,3.32e-1,
8.326000e+0,3.38e-1,
8.328000e+0,3.38e-1,
8.330000e+0,3.36e-1,
8.332000e+0,3.36e-1,
8.334000e+0,3.38e-1,
8.336000e+0,3.38e-1,
8.338000e+0,3.36e-1,
8.340000e+0,3.36e-1,
8.342000e+0,3.36e-1,
8.344000e+0,3.36e-1,
8.346000e+0,3.34e-1,
8.348000e+0,3.34e-1,
8.350000e+0,3.32e-1,
8.352000e+0,3.32e-1,
8.354000e+0,3.36e-1,
8.356000e+0,3.36e-1,
8.358000e+0,3.36e-1,
8.360000e+0,3.36e-1,
8.362000e+0,3.34e-1,
8.364000e+0,3.34e-1,
8.366000e+0,3.34e-1,
8.368000e+0,3.34e-1,
8.370000e+0,3.34e-1,
8.372000e+0,3.34e-1,
8.374000e+0,3.36e-1,
8.376000e+0,3.36e-1,
8.378000e+0,3.36e-1,
8.380000e+0,3.36e-1,
8.382000e+0,3.34e-1,
8.384000e+0,3.34e-1,
8.386000e+0,3.36e-1,
8.388000e+0,3.36e-1,
8.390000e+0,3.34e-1,
8.392000e+0,3.34e-1,
8.394000e+0,3.36e-1,
8.396000e+0,3.36e-1,
8.398000e+0,3.36e-1,
8.400000e+0,3.36e-1,
8.402000e+0,3.34e-1,
8.404000e+0,3.34e-1,
8.406000e+0,3.34e-1,
8.408000e+0,3.34e-1,
8.410000e+0,3.34e-1,
8.412000e+0,3.34e-1,
8.414000e+0,3.36e-1,
8.416000e+0,3.36e-1,
8.418000e+0,3.32e-1,
8.420000e+0,3.32e-1,
8.422000e+0,3.32e-1,
8.424000e+0,3.32e-1,
8.426000e+0,3.34e-1,
8.428000e+0,3.34e-1,
8.430000e+0,3.32e-1,
8.432000e+0,3.32e-1,
8.434000e+0,3.34e-1,
8.436000e+0,3.34e-1,
8.438000e+0,3.32e-1,
8.440000e+0,3.32e-1,
8.442000e+0,3.36e-1,
8.444000e+0,3.36e-1,
8.446000e+0,3.34e-1,
8.448000e+0,3.34e-1,
8.450000e+0,3.34e-1,
8.452000e+0,3.34e-1,
8.454000e+0,3.34e-1,
8.456000e+0,3.34e-1,
8.458000e+0,3.36e-1,
8.460000e+0,3.36e-1,
8.462000e+0,3.34e-1,
8.464000e+0,3.34e-1,
8.466000e+0,3.36e-1,
8.468000e+0,3.36e-1,
8.470000e+0,3.34e-1,
8.472000e+0,3.34e-1,
8.474000e+0,3.36e-1,
8.476000e+0,3.36e-1,
8.478000e+0,3.34e-1,
8.480000e+0,3.34e-1,
8.482000e+0,3.34e-1,
8.484000e+0,3.34e-1,
8.486000e+0,3.34e-1,
8.488000e+0,3.34e-1,
8.490000e+0,3.34e-1,
8.492000e+0,3.34e-1,
8.494000e+0,3.34e-1,
8.496000e+0,3.34e-1,
8.498000e+0,3.34e-1,
8.500000e+0,3.34e-1,
8.502000e+0,3.34e-1,
8.504000e+0,3.34e-1,
8.506000e+0,3.32e-1,
8.508000e+0,3.32e-1,
8.510000e+0,3.36e-1,
8.512000e+0,3.36e-1,
8.514000e+0,3.36e-1,
8.516000e+0,3.36e-1,
8.518000e+0,3.38e-1,
8.520000e+0,3.38e-1,
8.522000e+0,3.36e-1,
8.524000e+0,3.36e-1,
8.526000e+0,3.36e-1,
8.528000e+0,3.36e-1,
8.530000e+0,3.38e-1,
8.532000e+0,3.38e-1,
8.534000e+0,3.36e-1,
8.536000e+0,3.36e-1,
8.538000e+0,3.36e-1,
8.540000e+0,3.36e-1,
8.542000e+0,3.36e-1,
8.544000e+0,3.36e-1,
8.546000e+0,3.36e-1,
8.548000e+0,3.36e-1,
8.550000e+0,3.38e-1,
8.552000e+0,3.38e-1,
8.554000e+0,3.36e-1,
8.556000e+0,3.36e-1,
8.558000e+0,3.38e-1,
8.560000e+0,3.38e-1,
8.562000e+0,3.34e-1,
8.564000e+0,3.34e-1,
8.566000e+0,3.36e-1,
8.568000e+0,3.36e-1,
8.570000e+0,3.36e-1,
8.572000e+0,3.36e-1,
8.574000e+0,3.38e-1,
8.576000e+0,3.38e-1,
8.578000e+0,3.38e-1,
8.580000e+0,3.38e-1,
8.582000e+0,3.40e-1,
8.584000e+0,3.40e-1,
8.586000e+0,3.36e-1,
8.588000e+0,3.36e-1,
8.590000e+0,3.38e-1,
8.592000e+0,3.38e-1,
8.594000e+0,3.36e-1,
8.596000e+0,3.36e-1,
8.598000e+0,3.38e-1,
8.600000e+0,3.38e-1,
8.602000e+0,3.38e-1,
8.604000e+0,3.38e-1,
8.606000e+0,3.38e-1,
8.608000e+0,3.38e-1,
8.610000e+0,3.40e-1,
8.612000e+0,3.40e-1,
8.614000e+0,3.36e-1,
8.616000e+0,3.36e-1,
8.618000e+0,3.40e-1,
8.620000e+0,3.40e-1,
8.622000e+0,3.38e-1,
8.624000e+0,3.38e-1,
8.626000e+0,3.40e-1,
8.628000e+0,3.40e-1,
8.630000e+0,3.40e-1,
8.632000e+0,3.40e-1,
8.634000e+0,3.38e-1,
8.636000e+0,3.38e-1,
8.638000e+0,3.38e-1,
8.640000e+0,3.38e-1,
8.642000e+0,3.38e-1,
8.644000e+0,3.38e-1,
8.646000e+0,3.40e-1,
8.648000e+0,3.40e-1,
8.650000e+0,3.38e-1,
8.652000e+0,3.38e-1,
8.654000e+0,3.40e-1,
8.656000e+0,3.40e-1,
8.658000e+0,3.38e-1,
8.660000e+0,3.38e-1,
8.662000e+0,3.38e-1,
8.664000e+0,3.38e-1,
8.666000e+0,3.40e-1,
8.668000e+0,3.40e-1,
8.670000e+0,3.38e-1,
8.672000e+0,3.38e-1,
8.674000e+0,3.38e-1,
8.676000e+0,3.38e-1,
8.678000e+0,3.40e-1,
8.680000e+0,3.40e-1,
8.682000e+0,3.40e-1,
8.684000e+0,3.40e-1,
8.686000e+0,3.38e-1,
8.688000e+0,3.38e-1,
8.690000e+0,3.40e-1,
8.692000e+0,3.40e-1,
8.694000e+0,3.40e-1,
8.696000e+0,3.40e-1,
8.698000e+0,3.40e-1,
8.700000e+0,3.40e-1,
8.702000e+0,3.40e-1,
8.704000e+0,3.40e-1,
8.706000e+0,3.38e-1,
8.708000e+0,3.38e-1,
8.710000e+0,3.40e-1,
8.712000e+0,3.40e-1,
8.714000e+0,3.40e-1,
8.716000e+0,3.40e-1,
8.718000e+0,3.40e-1,
8.720000e+0,3.40e-1,
8.722000e+0,3.40e-1,
8.724000e+0,3.40e-1,
8.726000e+0,3.40e-1,
8.728000e+0,3.40e-1,
8.730000e+0,3.42e-1,
8.732000e+0,3.42e-1,
8.734000e+0,3.40e-1,
8.736000e+0,3.40e-1,
8.738000e+0,3.40e-1,
8.740000e+0,3.40e-1,
8.742000e+0,3.40e-1,
8.744000e+0,3.40e-1,
8.746000e+0,3.42e-1,
8.748000e+0,3.42e-1,
8.750000e+0,3.40e-1,
8.752000e+0,3.40e-1,
8.754000e+0,3.40e-1,
8.756000e+0,3.40e-1,
8.758000e+0,3.40e-1,
8.760000e+0,3.40e-1,
8.762000e+0,3.44e-1,
8.764000e+0,3.44e-1,
8.766000e+0,3.44e-1,
8.768000e+0,3.44e-1,
8.770000e+0,3.44e-1,
8.772000e+0,3.44e-1,
8.774000e+0,3.42e-1,
8.776000e+0,3.42e-1,
8.778000e+0,3.42e-1,
8.780000e+0,3.42e-1,
8.782000e+0,3.42e-1,
8.784000e+0,3.42e-1,
8.786000e+0,3.42e-1,
8.788000e+0,3.42e-1,
8.790000e+0,3.40e-1,
8.792000e+0,3.40e-1,
8.794000e+0,3.42e-1,
8.796000e+0,3.42e-1,
8.798000e+0,3.44e-1,
8.800000e+0,3.44e-1,
8.802000e+0,3.42e-1,
8.804000e+0,3.42e-1,
8.806000e+0,3.42e-1,
8.808000e+0,3.42e-1,
8.810000e+0,3.40e-1,
8.812000e+0,3.40e-1,
8.814000e+0,3.42e-1,
8.816000e+0,3.42e-1,
8.818000e+0,3.42e-1,
8.820000e+0,3.42e-1,
8.822000e+0,3.42e-1,
8.824000e+0,3.42e-1,
8.826000e+0,3.42e-1,
8.828000e+0,3.42e-1,
8.830000e+0,3.42e-1,
8.832000e+0,3.42e-1,
8.834000e+0,3.42e-1,
8.836000e+0,3.42e-1,
8.838000e+0,3.44e-1,
8.840000e+0,3.44e-1,
8.842000e+0,3.42e-1,
8.844000e+0,3.42e-1,
8.846000e+0,3.44e-1,
8.848000e+0,3.44e-1,
8.850000e+0,3.44e-1,
8.852000e+0,3.44e-1,
8.854000e+0,3.44e-1,
8.856000e+0,3.44e-1,
8.858000e+0,3.42e-1,
8.860000e+0,3.42e-1,
8.862000e+0,3.42e-1,
8.864000e+0,3.42e-1,
8.866000e+0,3.40e-1,
8.868000e+0,3.40e-1,
8.870000e+0,3.44e-1,
8.872000e+0,3.44e-1,
8.874000e+0,3.44e-1,
8.876000e+0,3.44e-1,
8.878000e+0,3.44e-1,
8.880000e+0,3.44e-1,
8.882000e+0,3.42e-1,
8.884000e+0,3.42e-1,
8.886000e+0,3.44e-1,
8.888000e+0,3.44e-1,
8.890000e+0,3.42e-1,
8.892000e+0,3.42e-1,
8.894000e+0,3.44e-1,
8.896000e+0,3.44e-1,
8.898000e+0,3.42e-1,
8.900000e+0,3.42e-1,
8.902000e+0,3.44e-1,
8.904000e+0,3.44e-1,
8.906000e+0,3.46e-1,
8.908000e+0,3.46e-1,
8.910000e+0,3.44e-1,
8.912000e+0,3.44e-1,
8.914000e+0,3.44e-1,
8.916000e+0,3.44e-1,
8.918000e+0,3.46e-1,
8.920000e+0,3.46e-1,
8.922000e+0,3.44e-1,
8.924000e+0,3.44e-1,
8.926000e+0,3.44e-1,
8.928000e+0,3.44e-1,
8.930000e+0,3.46e-1,
8.932000e+0,3.46e-1,
8.934000e+0,3.46e-1,
8.936000e+0,3.46e-1,
8.938000e+0,3.46e-1,
8.940000e+0,3.46e-1,
8.942000e+0,3.46e-1,
8.944000e+0,3.46e-1,
8.946000e+0,3.46e-1,
8.948000e+0,3.46e-1,
8.950000e+0,3.46e-1,
8.952000e+0,3.46e-1,
8.954000e+0,3.44e-1,
8.956000e+0,3.44e-1,
8.958000e+0,3.46e-1,
8.960000e+0,3.46e-1,
8.962000e+0,3.44e-1,
8.964000e+0,3.44e-1,
8.966000e+0,3.44e-1,
8.968000e+0,3.44e-1,
8.970000e+0,3.44e-1,
8.972000e+0,3.44e-1,
8.974000e+0,3.44e-1,
8.976000e+0,3.44e-1,
8.978000e+0,3.44e-1,
8.980000e+0,3.44e-1,
8.982000e+0,3.44e-1,
8.984000e+0,3.44e-1,
8.986000e+0,3.42e-1,
8.988000e+0,3.42e-1,
8.990000e+0,3.46e-1,
8.992000e+0,3.46e-1,
8.994000e+0,3.44e-1,
8.996000e+0,3.44e-1,
8.998000e+0,3.44e-1,
9.000000e+0,3.44e-1,
9.002000e+0,3.40e-1,
9.004000e+0,3.40e-1,
9.006000e+0,3.42e-1,
9.008000e+0,3.42e-1,
9.010000e+0,3.42e-1,
9.012000e+0,3.42e-1,
9.014000e+0,3.38e-1,
9.016000e+0,3.38e-1,
9.018000e+0,3.38e-1,
9.020000e+0,3.38e-1,
9.022000e+0,3.36e-1,
9.024000e+0,3.36e-1,
9.026000e+0,3.38e-1,
9.028000e+0,3.38e-1,
9.030000e+0,3.36e-1,
9.032000e+0,3.36e-1,
9.034000e+0,3.32e-1,
9.036000e+0,3.32e-1,
9.038000e+0,3.30e-1,
9.040000e+0,3.30e-1,
9.042000e+0,3.28e-1,
9.044000e+0,3.28e-1,
9.046000e+0,3.28e-1,
9.048000e+0,3.28e-1,
9.050000e+0,3.26e-1,
9.052000e+0,3.26e-1,
9.054000e+0,3.26e-1,
9.056000e+0,3.26e-1,
9.058000e+0,3.22e-1,
9.060000e+0,3.22e-1,
9.062000e+0,3.20e-1,
9.064000e+0,3.20e-1,
9.066000e+0,3.18e-1,
9.068000e+0,3.18e-1,
9.070000e+0,3.16e-1,
9.072000e+0,3.16e-1,
9.074000e+0,3.16e-1,
9.076000e+0,3.16e-1,
9.078000e+0,3.14e-1,
9.080000e+0,3.14e-1,
9.082000e+0,3.14e-1,
9.084000e+0,3.14e-1,
9.086000e+0,3.12e-1,
9.088000e+0,3.12e-1,
9.090000e+0,3.10e-1,
9.092000e+0,3.10e-1,
9.094000e+0,3.10e-1,
9.096000e+0,3.10e-1,
9.098000e+0,3.10e-1,
9.100000e+0,3.10e-1,
9.102000e+0,3.08e-1,
9.104000e+0,3.08e-1,
9.106000e+0,3.08e-1,
9.108000e+0,3.08e-1,
9.110000e+0,3.08e-1,
9.112000e+0,3.08e-1,
9.114000e+0,3.08e-1,
9.116000e+0,3.08e-1,
9.118000e+0,3.08e-1,
9.120000e+0,3.08e-1,
9.122000e+0,3.08e-1,
9.124000e+0,3.08e-1,
9.126000e+0,3.10e-1,
9.128000e+0,3.10e-1,
9.130000e+0,3.10e-1,
9.132000e+0,3.10e-1,
9.134000e+0,3.12e-1,
9.136000e+0,3.12e-1,
9.138000e+0,3.14e-1,
9.140000e+0,3.14e-1,
9.142000e+0,3.16e-1,
9.144000e+0,3.16e-1,
9.146000e+0,3.16e-1,
9.148000e+0,3.16e-1,
9.150000e+0,3.18e-1,
9.152000e+0,3.18e-1,
9.154000e+0,3.20e-1,
9.156000e+0,3.20e-1,
9.158000e+0,3.24e-1,
9.160000e+0,3.24e-1,
9.162000e+0,3.26e-1,
9.164000e+0,3.26e-1,
9.166000e+0,3.30e-1,
9.168000e+0,3.30e-1,
9.170000e+0,3.30e-1,
9.172000e+0,3.30e-1,
9.174000e+0,3.30e-1,
9.176000e+0,3.30e-1,
9.178000e+0,3.34e-1,
9.180000e+0,3.34e-1,
9.182000e+0,3.36e-1,
9.184000e+0,3.36e-1,
9.186000e+0,3.36e-1,
9.188000e+0,3.36e-1,
9.190000e+0,3.38e-1,
9.192000e+0,3.38e-1,
9.194000e+0,3.40e-1,
9.196000e+0,3.40e-1,
9.198000e+0,3.42e-1,
9.200000e+0,3.42e-1,
9.202000e+0,3.42e-1,
9.204000e+0,3.42e-1,
9.206000e+0,3.44e-1,
9.208000e+0,3.44e-1,
9.210000e+0,3.46e-1,
9.212000e+0,3.46e-1,
9.214000e+0,3.46e-1,
9.216000e+0,3.46e-1,
9.218000e+0,3.46e-1,
9.220000e+0,3.46e-1,
9.222000e+0,3.48e-1,
9.224000e+0,3.48e-1,
9.226000e+0,3.48e-1,
9.228000e+0,3.48e-1,
9.230000e+0,3.50e-1,
9.232000e+0,3.50e-1,
9.234000e+0,3.48e-1,
9.236000e+0,3.48e-1,
9.238000e+0,3.50e-1,
9.240000e+0,3.50e-1,
9.242000e+0,3.52e-1,
9.244000e+0,3.52e-1,
9.246000e+0,3.50e-1,
9.248000e+0,3.50e-1,
9.250000e+0,3.52e-1,
9.252000e+0,3.52e-1,
9.254000e+0,3.50e-1,
9.256000e+0,3.50e-1,
9.258000e+0,3.50e-1,
9.260000e+0,3.50e-1,
9.262000e+0,3.52e-1,
9.264000e+0,3.52e-1,
9.266000e+0,3.52e-1,
9.268000e+0,3.52e-1,
9.270000e+0,3.52e-1,
9.272000e+0,3.52e-1,
9.274000e+0,3.52e-1,
9.276000e+0,3.52e-1,
9.278000e+0,3.52e-1,
9.280000e+0,3.52e-1,
9.282000e+0,3.50e-1,
9.284000e+0,3.50e-1,
9.286000e+0,3.56e-1,
9.288000e+0,3.56e-1,
9.290000e+0,3.52e-1,
9.292000e+0,3.52e-1,
9.294000e+0,3.52e-1,
9.296000e+0,3.52e-1,
9.298000e+0,3.54e-1,
9.300000e+0,3.54e-1,
9.302000e+0,3.52e-1,
9.304000e+0,3.52e-1,
9.306000e+0,3.54e-1,
9.308000e+0,3.54e-1,
9.310000e+0,3.54e-1,
9.312000e+0,3.54e-1,
9.314000e+0,3.54e-1,
9.316000e+0,3.54e-1,
9.318000e+0,3.54e-1,
9.320000e+0,3.54e-1,
9.322000e+0,3.52e-1,
9.324000e+0,3.52e-1,
9.326000e+0,3.56e-1,
9.328000e+0,3.56e-1,
9.330000e+0,3.54e-1,
9.332000e+0,3.54e-1,
9.334000e+0,3.54e-1,
9.336000e+0,3.54e-1,
9.338000e+0,3.54e-1,
9.340000e+0,3.54e-1,
9.342000e+0,3.54e-1,
9.344000e+0,3.54e-1,
9.346000e+0,3.54e-1,
9.348000e+0,3.54e-1,
9.350000e+0,3.56e-1,
9.352000e+0,3.56e-1,
9.354000e+0,3.54e-1,
9.356000e+0,3.54e-1,
9.358000e+0,3.54e-1,
9.360000e+0,3.54e-1,
9.362000e+0,3.56e-1,
9.364000e+0,3.56e-1,
9.366000e+0,3.56e-1,
9.368000e+0,3.56e-1,
9.370000e+0,3.56e-1,
9.372000e+0,3.56e-1,
9.374000e+0,3.56e-1,
9.376000e+0,3.56e-1,
9.378000e+0,3.56e-1,
9.380000e+0,3.56e-1,
9.382000e+0,3.56e-1,
9.384000e+0,3.56e-1,
9.386000e+0,3.54e-1,
9.388000e+0,3.54e-1,
9.390000e+0,3.54e-1,
9.392000e+0,3.54e-1,
9.394000e+0,3.56e-1,
9.396000e+0,3.56e-1,
9.398000e+0,3.54e-1,
9.400000e+0,3.54e-1,
9.402000e+0,3.54e-1,
9.404000e+0,3.54e-1,
9.406000e+0,3.54e-1,
9.408000e+0,3.54e-1,
9.410000e+0,3.56e-1,
9.412000e+0,3.56e-1,
9.414000e+0,3.56e-1,
9.416000e+0,3.56e-1,
9.418000e+0,3.58e-1,
9.420000e+0,3.58e-1,
9.422000e+0,3.56e-1,
9.424000e+0,3.56e-1,
9.426000e+0,3.56e-1,
9.428000e+0,3.56e-1,
9.430000e+0,3.56e-1,
9.432000e+0,3.56e-1,
9.434000e+0,3.58e-1,
9.436000e+0,3.58e-1,
9.438000e+0,3.56e-1,
9.440000e+0,3.56e-1,
9.442000e+0,3.56e-1,
9.444000e+0,3.56e-1,
9.446000e+0,3.54e-1,
9.448000e+0,3.54e-1,
9.450000e+0,3.58e-1,
9.452000e+0,3.58e-1,
9.454000e+0,3.60e-1,
9.456000e+0,3.60e-1,
9.458000e+0,3.58e-1,
9.460000e+0,3.58e-1,
9.462000e+0,3.58e-1,
9.464000e+0,3.58e-1,
9.466000e+0,3.56e-1,
9.468000e+0,3.56e-1,
9.470000e+0,3.58e-1,
9.472000e+0,3.58e-1,
9.474000e+0,3.58e-1,
9.476000e+0,3.58e-1,
9.478000e+0,3.56e-1,
9.480000e+0,3.56e-1,
9.482000e+0,3.56e-1,
9.484000e+0,3.56e-1,
9.486000e+0,3.56e-1,
9.488000e+0,3.56e-1,
9.490000e+0,3.56e-1,
9.492000e+0,3.56e-1,
9.494000e+0,3.54e-1,
9.496000e+0,3.54e-1,
9.498000e+0,3.54e-1,
9.500000e+0,3.54e-1,
9.502000e+0,3.52e-1,
9.504000e+0,3.52e-1,
9.506000e+0,3.54e-1,
9.508000e+0,3.54e-1,
9.510000e+0,3.52e-1,
9.512000e+0,3.52e-1,
9.514000e+0,3.50e-1,
9.516000e+0,3.50e-1,
9.518000e+0,3.50e-1,
9.520000e+0,3.50e-1,
9.522000e+0,3.48e-1,
9.524000e+0,3.48e-1,
9.526000e+0,3.42e-1,
9.528000e+0,3.42e-1,
9.530000e+0,3.44e-1,
9.532000e+0,3.44e-1,
9.534000e+0,3.38e-1,
9.536000e+0,3.38e-1,
9.538000e+0,3.32e-1,
9.540000e+0,3.32e-1,
9.542000e+0,3.30e-1,
9.544000e+0,3.30e-1,
9.546000e+0,3.24e-1,
9.548000e+0,3.24e-1,
9.550000e+0,3.22e-1,
9.552000e+0,3.22e-1,
9.554000e+0,3.18e-1,
9.556000e+0,3.18e-1,
9.558000e+0,3.12e-1,
9.560000e+0,3.12e-1,
9.562000e+0,3.04e-1,
9.564000e+0,3.04e-1,
9.566000e+0,3.00e-1,
9.568000e+0,3.00e-1,
9.570000e+0,2.92e-1,
9.572000e+0,2.92e-1,
9.574000e+0,2.86e-1,
9.576000e+0,2.86e-1,
9.578000e+0,2.80e-1,
9.580000e+0,2.80e-1,
9.582000e+0,2.72e-1,
9.584000e+0,2.72e-1,
9.586000e+0,2.70e-1,
9.588000e+0,2.70e-1,
9.590000e+0,2.64e-1,
9.592000e+0,2.64e-1,
9.594000e+0,2.56e-1,
9.596000e+0,2.56e-1,
9.598000e+0,2.52e-1,
9.600000e+0,2.52e-1,
9.602000e+0,2.50e-1,
9.604000e+0,2.50e-1,
9.606000e+0,2.46e-1,
9.608000e+0,2.46e-1,
9.610000e+0,2.44e-1,
9.612000e+0,2.44e-1,
9.614000e+0,2.38e-1,
9.616000e+0,2.38e-1,
9.618000e+0,2.42e-1,
9.620000e+0,2.42e-1,
9.622000e+0,2.42e-1,
9.624000e+0,2.42e-1,
9.626000e+0,2.42e-1,
9.628000e+0,2.42e-1,
9.630000e+0,2.44e-1,
9.632000e+0,2.44e-1,
9.634000e+0,2.44e-1,
9.636000e+0,2.44e-1,
9.638000e+0,2.46e-1,
9.640000e+0,2.46e-1,
9.642000e+0,2.52e-1,
9.644000e+0,2.52e-1,
9.646000e+0,2.56e-1,
9.648000e+0,2.56e-1,
9.650000e+0,2.60e-1,
9.652000e+0,2.60e-1,
9.654000e+0,2.66e-1,
9.656000e+0,2.66e-1,
9.658000e+0,2.70e-1,
9.660000e+0,2.70e-1,
9.662000e+0,2.76e-1,
9.664000e+0,2.76e-1,
9.666000e+0,2.84e-1,
9.668000e+0,2.84e-1,
9.670000e+0,2.90e-1,
9.672000e+0,2.90e-1,
9.674000e+0,2.94e-1,
9.676000e+0,2.94e-1,
9.678000e+0,3.04e-1,
9.680000e+0,3.04e-1,
9.682000e+0,3.08e-1,
9.684000e+0,3.08e-1,
9.686000e+0,3.14e-1,
9.688000e+0,3.14e-1,
9.690000e+0,3.20e-1,
9.692000e+0,3.20e-1,
9.694000e+0,3.26e-1,
9.696000e+0,3.26e-1,
9.698000e+0,3.32e-1,
9.700000e+0,3.32e-1,
9.702000e+0,3.36e-1,
9.704000e+0,3.36e-1,
9.706000e+0,3.38e-1,
9.708000e+0,3.38e-1,
9.710000e+0,3.42e-1,
9.712000e+0,3.42e-1,
9.714000e+0,3.46e-1,
9.716000e+0,3.46e-1,
9.718000e+0,3.46e-1,
9.720000e+0,3.46e-1,
9.722000e+0,3.50e-1,
9.724000e+0,3.50e-1,
9.726000e+0,3.54e-1,
9.728000e+0,3.54e-1,
9.730000e+0,3.56e-1,
9.732000e+0,3.56e-1,
9.734000e+0,3.56e-1,
9.736000e+0,3.56e-1,
9.738000e+0,3.58e-1,
9.740000e+0,3.58e-1,
9.742000e+0,3.58e-1,
9.744000e+0,3.58e-1,
9.746000e+0,3.62e-1,
9.748000e+0,3.62e-1,
9.750000e+0,3.62e-1,
9.752000e+0,3.62e-1,
9.754000e+0,3.60e-1,
9.756000e+0,3.60e-1,
9.758000e+0,3.64e-1,
9.760000e+0,3.64e-1,
9.762000e+0,3.64e-1,
9.764000e+0,3.64e-1,
9.766000e+0,3.64e-1,
9.768000e+0,3.64e-1,
9.770000e+0,3.66e-1,
9.772000e+0,3.66e-1,
9.774000e+0,3.66e-1,
9.776000e+0,3.66e-1,
9.778000e+0,3.64e-1,
9.780000e+0,3.64e-1,
9.782000e+0,3.64e-1,
9.784000e+0,3.64e-1,
9.786000e+0,3.66e-1,
9.788000e+0,3.66e-1,
9.790000e+0,3.64e-1,
9.792000e+0,3.64e-1,
9.794000e+0,3.64e-1,
9.796000e+0,3.64e-1,
9.798000e+0,3.66e-1,
9.800000e+0,3.66e-1,
9.802000e+0,3.66e-1,
9.804000e+0,3.66e-1,
9.806000e+0,3.64e-1,
9.808000e+0,3.64e-1,
9.810000e+0,3.66e-1,
9.812000e+0,3.66e-1,
9.814000e+0,3.66e-1,
9.816000e+0,3.66e-1,
9.818000e+0,3.68e-1,
9.820000e+0,3.68e-1,
9.822000e+0,3.66e-1,
9.824000e+0,3.66e-1,
9.826000e+0,3.68e-1,
9.828000e+0,3.68e-1,
9.830000e+0,3.66e-1,
9.832000e+0,3.66e-1,
9.834000e+0,3.66e-1,
9.836000e+0,3.66e-1,
9.838000e+0,3.66e-1,
9.840000e+0,3.66e-1,
9.842000e+0,3.66e-1,
9.844000e+0,3.66e-1,
9.846000e+0,3.70e-1,
9.848000e+0,3.70e-1,
9.850000e+0,3.68e-1,
9.852000e+0,3.68e-1,
9.854000e+0,3.66e-1,
9.856000e+0,3.66e-1,
9.858000e+0,3.66e-1,
9.860000e+0,3.66e-1,
9.862000e+0,3.68e-1,
9.864000e+0,3.68e-1,
9.866000e+0,3.68e-1,
9.868000e+0,3.68e-1,
9.870000e+0,3.66e-1,
9.872000e+0,3.66e-1,
9.874000e+0,3.68e-1,
9.876000e+0,3.68e-1,
9.878000e+0,3.66e-1,
9.880000e+0,3.66e-1,
9.882000e+0,3.68e-1,
9.884000e+0,3.68e-1,
9.886000e+0,3.68e-1,
9.888000e+0,3.68e-1,
9.890000e+0,3.68e-1,
9.892000e+0,3.68e-1,
9.894000e+0,3.68e-1,
9.896000e+0,3.68e-1,
9.898000e+0,3.68e-1,
9.900000e+0,3.68e-1,
9.902000e+0,3.70e-1,
9.904000e+0,3.70e-1,
9.906000e+0,3.68e-1,
9.908000e+0,3.68e-1,
9.910000e+0,3.72e-1,
9.912000e+0,3.72e-1,
9.914000e+0,3.68e-1,
9.916000e+0,3.68e-1,
9.918000e+0,3.70e-1,
9.920000e+0,3.70e-1,
9.922000e+0,3.70e-1,
9.924000e+0,3.70e-1,
9.926000e+0,3.70e-1,
9.928000e+0,3.70e-1,
9.930000e+0,3.68e-1,
9.932000e+0,3.68e-1,
9.934000e+0,3.70e-1,
9.936000e+0,3.70e-1,
9.938000e+0,3.68e-1,
9.940000e+0,3.68e-1,
9.942000e+0,3.70e-1,
9.944000e+0,3.70e-1,
9.946000e+0,3.70e-1,
9.948000e+0,3.70e-1,
9.950000e+0,3.70e-1,
9.952000e+0,3.70e-1,
9.954000e+0,3.70e-1,
9.956000e+0,3.70e-1,
9.958000e+0,3.70e-1,
9.960000e+0,3.70e-1,
9.962000e+0,3.68e-1,
9.964000e+0,3.68e-1,
9.966000e+0,3.72e-1,
9.968000e+0,3.72e-1,
9.970000e+0,3.70e-1,
9.972000e+0,3.70e-1,
9.974000e+0,3.70e-1,
9.976000e+0,3.70e-1,
9.978000e+0,3.70e-1,
9.980000e+0,3.70e-1,
9.982000e+0,3.72e-1,
9.984000e+0,3.72e-1,
9.986000e+0,3.70e-1,
9.988000e+0,3.70e-1,
9.990000e+0,3.72e-1,
9.992000e+0,3.72e-1,
9.994000e+0,3.72e-1,
9.996000e+0,3.72e-1,
9.998000e+0,3.70e-1,
1.000000e+1,3.70e-1,
1.000200e+1,3.70e-1,
1.000400e+1,3.70e-1,
1.000600e+1,3.70e-1,
1.000800e+1,3.70e-1,
1.001000e+1,3.70e-1,
1.001200e+1,3.70e-1,
1.001400e+1,3.70e-1,
1.001600e+1,3.70e-1,
1.001800e+1,3.70e-1,
1.002000e+1,3.70e-1,
1.002200e+1,3.70e-1,
1.002400e+1,3.70e-1,
1.002600e+1,3.72e-1,
1.002800e+1,3.72e-1,
1.003000e+1,3.70e-1,
1.003200e+1,3.70e-1,
1.003400e+1,3.72e-1,
1.003600e+1,3.72e-1,
1.003800e+1,3.72e-1,
1.004000e+1,3.72e-1,
1.004200e+1,3.70e-1,
1.004400e+1,3.70e-1,
1.004600e+1,3.72e-1,
1.004800e+1,3.72e-1,
1.005000e+1,3.72e-1,
1.005200e+1,3.72e-1,
1.005400e+1,3.70e-1,
1.005600e+1,3.70e-1,
1.005800e+1,3.68e-1,
1.006000e+1,3.68e-1,
1.006200e+1,3.70e-1,
1.006400e+1,3.70e-1,
1.006600e+1,3.70e-1,
1.006800e+1,3.70e-1,
1.007000e+1,3.68e-1,
1.007200e+1,3.68e-1,
1.007400e+1,3.68e-1,
1.007600e+1,3.68e-1,
1.007800e+1,3.64e-1,
1.008000e+1,3.64e-1,
1.008200e+1,3.64e-1,
1.008400e+1,3.64e-1,
1.008600e+1,3.64e-1,
1.008800e+1,3.64e-1,
1.009000e+1,3.60e-1,
1.009200e+1,3.60e-1,
1.009400e+1,3.58e-1,
1.009600e+1,3.58e-1,
1.009800e+1,3.52e-1,
1.010000e+1,3.52e-1,
1.010200e+1,3.50e-1,
1.010400e+1,3.50e-1,
1.010600e+1,3.44e-1,
1.010800e+1,3.44e-1,
1.011000e+1,3.36e-1,
1.011200e+1,3.36e-1,
1.011400e+1,3.30e-1,
1.011600e+1,3.30e-1,
1.011800e+1,3.28e-1,
