Memory Length,4000,
Trigger Level,2.56900e+00,
Source,CH1,
Probe,1.0X,
Vertical Units,V,
Vertical Scale,5.00000e-02,
Vertical Position,6.00000e-02,
Horizontal Units,S,
Horizontal Scale,5.00000e-01,
Horizontal Position,6.1200000e+00,
Horizontal Mode,Main,
Sampling Period,4.00000e-03,
Firmware,V1.14,
Time, ,
Mode,Detail,
Waveform Data,
-1.880000e+0,1.60e-2,
-1.876000e+0,1.60e-2,
-1.872000e+0,1.60e-2,
-1.868000e+0,1.40e-2,
-1.864000e+0,1.40e-2,
-1.860000e+0,1.60e-2,
-1.856000e+0,1.60e-2,
-1.852000e+0,1.60e-2,
-1.848000e+0,1.60e-2,
-1.844000e+0,1.60e-2,
-1.840000e+0,1.60e-2,
-1.836000e+0,1.40e-2,
-1.832000e+0,1.40e-2,
-1.828000e+0,1.20e-2,
-1.824000e+0,1.20e-2,
-1.820000e+0,1.40e-2,
-1.816000e+0,1.40e-2,
-1.812000e+0,1.40e-2,
-1.808000e+0,1.40e-2,
-1.804000e+0,1.40e-2,
-1.800000e+0,1.40e-2,
-1.796000e+0,1.20e-2,
-1.792000e+0,1.20e-2,
-1.788000e+0,1.40e-2,
-1.784000e+0,1.40e-2,
-1.780000e+0,1.20e-2,
-1.776000e+0,1.20e-2,
-1.772000e+0,1.20e-2,
-1.768000e+0,1.20e-2,
-1.764000e+0,1.20e-2,
-1.760000e+0,1.20e-2,
-1.756000e+0,1.20e-2,
-1.752000e+0,1.20e-2,
-1.748000e+0,1.20e-2,
-1.744000e+0,1.20e-2,
-1.740000e+0,1.20e-2,
-1.736000e+0,1.20e-2,
-1.732000e+0,1.20e-2,
-1.728000e+0,1.20e-2,
-1.724000e+0,1.00e-2,
-1.720000e+0,1.00e-2,
-1.716000e+0,1.00e-2,
-1.712000e+0,1.00e-2,
-1.708000e+0,8.00e-3,
-1.704000e+0,8.00e-3,
-1.700000e+0,1.00e-2,
-1.696000e+0,1.00e-2,
-1.692000e+0,1.00e-2,
-1.688000e+0,1.00e-2,
-1.684000e+0,1.00e-2,
-1.680000e+0,1.00e-2,
-1.676000e+0,8.00e-3,
-1.672000e+0,8.00e-3,
-1.668000e+0,1.00e-2,
-1.664000e+0,1.00e-2,
-1.660000e+0,1.00e-2,
-1.656000e+0,1.00e-2,
-1.652000e+0,8.00e-3,
-1.648000e+0,8.00e-3,
-1.644000e+0,8.00e-3,
-1.640000e+0,8.00e-3,
-1.636000e+0,6.00e-3,
-1.632000e+0,6.00e-3,
-1.628000e+0,1.00e-2,
-1.624000e+0,1.00e-2,
-1.620000e+0,8.00e-3,
-1.616000e+0,8.00e-3,
-1.612000e+0,6.00e-3,
-1.608000e+0,6.00e-3,
-1.604000e+0,4.00e-3,
-1.600000e+0,4.00e-3,
-1.596000e+0,6.00e-3,
-1.592000e+0,6.00e-3,
-1.588000e+0,8.00e-3,
-1.584000e+0,8.00e-3,
-1.580000e+0,8.00e-3,
-1.576000e+0,8.00e-3,
-1.572000e+0,4.00e-3,
-1.568000e+0,4.00e-3,
-1.564000e+0,6.00e-3,
-1.560000e+0,6.00e-3,
-1.556000e+0,4.00e-3,
-1.552000e+0,4.00e-3,
-1.548000e+0,4.00e-3,
-1.544000e+0,4.00e-3,
-1.540000e+0,4.00e-3,
-1.536000e+0,4.00e-3,
-1.532000e+0,4.00e-3,
-1.528000e+0,4.00e-3,
-1.524000e+0,4.00e-3,
-1.520000e+0,4.00e-3,
-1.516000e+0,2.00e-3,
-1.512000e+0,2.00e-3,
-1.508000e+0,4.00e-3,
-1.504000e+0,4.00e-3,
-1.500000e+0,4.00e-3,
-1.496000e+0,4.00e-3,
-1.492000e+0,2.00e-3,
-1.488000e+0,2.00e-3,
-1.484000e+0,4.00e-3,
-1.480000e+0,4.00e-3,
-1.476000e+0,2.00e-3,
-1.472000e+0,2.00e-3,
-1.468000e+0,4.00e-3,
-1.464000e+0,4.00e-3,
-1.460000e+0,2.00e-3,
-1.456000e+0,2.00e-3,
-1.452000e+0,2.00e-3,
-1.448000e+0,2.00e-3,
-1.444000e+0,2.00e-3,
-1.440000e+0,2.00e-3,
-1.436000e+0,0.00e+0,
-1.432000e+0,0.00e+0,
-1.428000e+0,0.00e+0,
-1.424000e+0,0.00e+0,
-1.420000e+0,2.00e-3,
-1.416000e+0,2.00e-3,
-1.412000e+0,-2.00e-3,
-1.408000e+0,-2.00e-3,
-1.404000e+0,0.00e+0,
-1.400000e+0,0.00e+0,
-1.396000e+0,-2.00e-3,
-1.392000e+0,-2.00e-3,
-1.388000e+0,-2.00e-3,
-1.384000e+0,-2.00e-3,
-1.380000e+0,2.00e-3,
-1.376000e+0,2.00e-3,
-1.372000e+0,-4.00e-3,
-1.368000e+0,-4.00e-3,
-1.364000e+0,-2.00e-3,
-1.360000e+0,-2.00e-3,
-1.356000e+0,0.00e+0,
-1.352000e+0,0.00e+0,
-1.348000e+0,-2.00e-3,
-1.344000e+0,-2.00e-3,
-1.340000e+0,0.00e+0,
-1.336000e+0,0.00e+0,
-1.332000e+0,-2.00e-3,
-1.328000e+0,-2.00e-3,
-1.324000e+0,-2.00e-3,
-1.320000e+0,-2.00e-3,
-1.316000e+0,-2.00e-3,
-1.312000e+0,-2.00e-3,
-1.308000e+0,-4.00e-3,
-1.304000e+0,-4.00e-3,
-1.300000e+0,-6.00e-3,
-1.296000e+0,-6.00e-3,
-1.292000e+0,-4.00e-3,
-1.288000e+0,-4.00e-3,
-1.284000e+0,-4.00e-3,
-1.280000e+0,-4.00e-3,
-1.276000e+0,-4.00e-3,
-1.272000e+0,-4.00e-3,
-1.268000e+0,-4.00e-3,
-1.264000e+0,-4.00e-3,
-1.260000e+0,-4.00e-3,
-1.256000e+0,-4.00e-3,
-1.252000e+0,-4.00e-3,
-1.248000e+0,-4.00e-3,
-1.244000e+0,-6.00e-3,
-1.240000e+0,-6.00e-3,
-1.236000e+0,-6.00e-3,
-1.232000e+0,-6.00e-3,
-1.228000e+0,-6.00e-3,
-1.224000e+0,-6.00e-3,
-1.220000e+0,-4.00e-3,
-1.216000e+0,-4.00e-3,
-1.212000e+0,-6.00e-3,
-1.208000e+0,-6.00e-3,
-1.204000e+0,-6.00e-3,
-1.200000e+0,-6.00e-3,
-1.196000e+0,-6.00e-3,
-1.192000e+0,-6.00e-3,
-1.188000e+0,-6.00e-3,
-1.184000e+0,-6.00e-3,
-1.180000e+0,-8.00e-3,
-1.176000e+0,-8.00e-3,
-1.172000e+0,-6.00e-3,
-1.168000e+0,-6.00e-3,
-1.164000e+0,-6.00e-3,
-1.160000e+0,-6.00e-3,
-1.156000e+0,-1.20e-2,
-1.152000e+0,-1.20e-2,
-1.148000e+0,-6.00e-3,
-1.144000e+0,-6.00e-3,
-1.140000e+0,-1.20e-2,
-1.136000e+0,-1.20e-2,
-1.132000e+0,-8.00e-3,
-1.128000e+0,-8.00e-3,
-1.124000e+0,-1.20e-2,
-1.120000e+0,-1.20e-2,
-1.116000e+0,-1.00e-2,
-1.112000e+0,-1.00e-2,
-1.108000e+0,-1.00e-2,
-1.104000e+0,-1.00e-2,
-1.100000e+0,-1.20e-2,
-1.096000e+0,-1.20e-2,
-1.092000e+0,-1.40e-2,
-1.088000e+0,-1.40e-2,
-1.084000e+0,-1.00e-2,
-1.080000e+0,-1.00e-2,
-1.076000e+0,-1.20e-2,
-1.072000e+0,-1.20e-2,
-1.068000e+0,-1.40e-2,
-1.064000e+0,-1.40e-2,
-1.060000e+0,-1.20e-2,
-1.056000e+0,-1.20e-2,
-1.052000e+0,-1.40e-2,
-1.048000e+0,-1.40e-2,
-1.044000e+0,-1.40e-2,
-1.040000e+0,-1.40e-2,
-1.036000e+0,-1.40e-2,
-1.032000e+0,-1.40e-2,
-1.028000e+0,-1.20e-2,
-1.024000e+0,-1.20e-2,
-1.020000e+0,-1.40e-2,
-1.016000e+0,-1.40e-2,
-1.012000e+0,-1.40e-2,
-1.008000e+0,-1.40e-2,
-1.004000e+0,-1.40e-2,
-1.000000e+0,-1.40e-2,
-9.960000e-1,-1.40e-2,
-9.920000e-1,-1.40e-2,
-9.880000e-1,-1.40e-2,
-9.840000e-1,-1.40e-2,
-9.800000e-1,-1.20e-2,
-9.760000e-1,-1.20e-2,
-9.720000e-1,-1.40e-2,
-9.680000e-1,-1.40e-2,
-9.640000e-1,-1.40e-2,
-9.600000e-1,-1.40e-2,
-9.560000e-1,-1.80e-2,
-9.520000e-1,-1.80e-2,
-9.480000e-1,-1.40e-2,
-9.440000e-1,-1.40e-2,
-9.400000e-1,-1.40e-2,
-9.360000e-1,-1.40e-2,
-9.320000e-1,-1.80e-2,
-9.280000e-1,-1.80e-2,
-9.240000e-1,-1.80e-2,
-9.200000e-1,-1.80e-2,
-9.160000e-1,-1.60e-2,
-9.120000e-1,-1.60e-2,
-9.080000e-1,-1.80e-2,
-9.040000e-1,-1.80e-2,
-9.000000e-1,-2.00e-2,
-8.960000e-1,-2.00e-2,
-8.920000e-1,-1.60e-2,
-8.880000e-1,-1.60e-2,
-8.840000e-1,-1.80e-2,
-8.800000e-1,-1.80e-2,
-8.760000e-1,-1.80e-2,
-8.720000e-1,-1.80e-2,
-8.680000e-1,-2.00e-2,
-8.640000e-1,-2.00e-2,
-8.600000e-1,-1.80e-2,
-8.560000e-1,-1.80e-2,
-8.520000e-1,-2.00e-2,
-8.480000e-1,-2.00e-2,
-8.440000e-1,-1.80e-2,
-8.400000e-1,-1.80e-2,
-8.360000e-1,-2.00e-2,
-8.320000e-1,-2.00e-2,
-8.280000e-1,-2.20e-2,
-8.240000e-1,-2.20e-2,
-8.200000e-1,-2.00e-2,
-8.160000e-1,-2.00e-2,
-8.120000e-1,-1.80e-2,
-8.080000e-1,-1.80e-2,
-8.040000e-1,-2.00e-2,
-8.000000e-1,-2.00e-2,
-7.960000e-1,-1.80e-2,
-7.920000e-1,-1.80e-2,
-7.880000e-1,-2.20e-2,
-7.840000e-1,-2.20e-2,
-7.800000e-1,-2.20e-2,
-7.760000e-1,-2.20e-2,
-7.720000e-1,-2.00e-2,
-7.680000e-1,-2.00e-2,
-7.640000e-1,-2.00e-2,
-7.600000e-1,-2.00e-2,
-7.560000e-1,-2.00e-2,
-7.520000e-1,-2.00e-2,
-7.480000e-1,-2.00e-2,
-7.440000e-1,-2.00e-2,
-7.400000e-1,-2.20e-2,
-7.360000e-1,-2.20e-2,
-7.320000e-1,-2.20e-2,
-7.280000e-1,-2.20e-2,
-7.240000e-1,-2.20e-2,
-7.200000e-1,-2.20e-2,
-7.160000e-1,-2.20e-2,
-7.120000e-1,-2.20e-2,
-7.080000e-1,-2.20e-2,
-7.040000e-1,-2.20e-2,
-7.000000e-1,-2.40e-2,
-6.960000e-1,-2.40e-2,
-6.920000e-1,-2.20e-2,
-6.880000e-1,-2.20e-2,
-6.840000e-1,-2.40e-2,
-6.800000e-1,-2.40e-2,
-6.760000e-1,-2.40e-2,
-6.720000e-1,-2.40e-2,
-6.680000e-1,-2.40e-2,
-6.640000e-1,-2.40e-2,
-6.600000e-1,-2.40e-2,
-6.560000e-1,-2.40e-2,
-6.520000e-1,-2.80e-2,
-6.480000e-1,-2.80e-2,
-6.440000e-1,-2.60e-2,
-6.400000e-1,-2.60e-2,
-6.360000e-1,-2.60e-2,
-6.320000e-1,-2.60e-2,
-6.280000e-1,-2.80e-2,
-6.240000e-1,-2.80e-2,
-6.200000e-1,-2.60e-2,
-6.160000e-1,-2.60e-2,
-6.120000e-1,-2.60e-2,
-6.080000e-1,-2.60e-2,
-6.040000e-1,-2.60e-2,
-6.000000e-1,-2.60e-2,
-5.960000e-1,-2.80e-2,
-5.920000e-1,-2.80e-2,
-5.880000e-1,-2.60e-2,
-5.840000e-1,-2.60e-2,
-5.800000e-1,-2.80e-2,
-5.760000e-1,-2.80e-2,
-5.720000e-1,-2.80e-2,
-5.680000e-1,-2.80e-2,
-5.640000e-1,-2.80e-2,
-5.600000e-1,-2.80e-2,
-5.560000e-1,-2.80e-2,
-5.520000e-1,-2.80e-2,
-5.480000e-1,-2.80e-2,
-5.440000e-1,-2.80e-2,
-5.400000e-1,-3.00e-2,
-5.360000e-1,-3.00e-2,
-5.320000e-1,-3.00e-2,
-5.280000e-1,-3.00e-2,
-5.240000e-1,-3.00e-2,
-5.200000e-1,-3.00e-2,
-5.160000e-1,-2.80e-2,
-5.120000e-1,-2.80e-2,
-5.080000e-1,-3.00e-2,
-5.040000e-1,-3.00e-2,
-5.000000e-1,-3.00e-2,
-4.960000e-1,-3.00e-2,
-4.920000e-1,-3.00e-2,
-4.880000e-1,-3.00e-2,
-4.840000e-1,-3.00e-2,
-4.800000e-1,-3.00e-2,
-4.760000e-1,-3.00e-2,
-4.720000e-1,-3.00e-2,
-4.680000e-1,-3.00e-2,
-4.640000e-1,-3.00e-2,
-4.600000e-1,-3.00e-2,
-4.560000e-1,-3.00e-2,
-4.520000e-1,-3.00e-2,
-4.480000e-1,-3.00e-2,
-4.440000e-1,-3.20e-2,
-4.400000e-1,-3.20e-2,
-4.360000e-1,-3.40e-2,
-4.320000e-1,-3.40e-2,
-4.280000e-1,-3.20e-2,
-4.240000e-1,-3.20e-2,
-4.200000e-1,-3.00e-2,
-4.160000e-1,-3.00e-2,
-4.120000e-1,-3.00e-2,
-4.080000e-1,-3.00e-2,
-4.040000e-1,-3.20e-2,
-4.000000e-1,-3.20e-2,
-3.960000e-1,-3.00e-2,
-3.920000e-1,-3.00e-2,
-3.880000e-1,-3.40e-2,
-3.840000e-1,-3.40e-2,
-3.800000e-1,-3.40e-2,
-3.760000e-1,-3.40e-2,
-3.720000e-1,-3.20e-2,
-3.680000e-1,-3.20e-2,
-3.640000e-1,-3.40e-2,
-3.600000e-1,-3.40e-2,
-3.560000e-1,-3.60e-2,
-3.520000e-1,-3.60e-2,
-3.480000e-1,-3.60e-2,
-3.440000e-1,-3.60e-2,
-3.400000e-1,-3.80e-2,
-3.360000e-1,-3.80e-2,
-3.320000e-1,-3.60e-2,
-3.280000e-1,-3.60e-2,
-3.240000e-1,-3.60e-2,
-3.200000e-1,-3.60e-2,
-3.160000e-1,-3.80e-2,
-3.120000e-1,-3.80e-2,
-3.080000e-1,-3.60e-2,
-3.040000e-1,-3.60e-2,
-3.000000e-1,-3.60e-2,
-2.960000e-1,-3.60e-2,
-2.920000e-1,-3.60e-2,
-2.880000e-1,-3.60e-2,
-2.840000e-1,-3.80e-2,
-2.800000e-1,-3.80e-2,
-2.760000e-1,-3.80e-2,
-2.720000e-1,-3.80e-2,
-2.680000e-1,-3.80e-2,
-2.640000e-1,-3.80e-2,
-2.600000e-1,-3.80e-2,
-2.560000e-1,-3.80e-2,
-2.520000e-1,-3.80e-2,
-2.480000e-1,-3.80e-2,
-2.440000e-1,-3.80e-2,
-2.400000e-1,-3.80e-2,
-2.360000e-1,-4.20e-2,
-2.320000e-1,-4.20e-2,
-2.280000e-1,-3.80e-2,
-2.240000e-1,-3.80e-2,
-2.200000e-1,-4.20e-2,
-2.160000e-1,-4.20e-2,
-2.120000e-1,-3.80e-2,
-2.080000e-1,-3.80e-2,
-2.040000e-1,-4.20e-2,
-2.000000e-1,-4.20e-2,
-1.960000e-1,-4.20e-2,
-1.920000e-1,-4.20e-2,
-1.880000e-1,-4.20e-2,
-1.840000e-1,-4.20e-2,
-1.800000e-1,-4.20e-2,
-1.760000e-1,-4.20e-2,
-1.720000e-1,-4.20e-2,
-1.680000e-1,-4.20e-2,
-1.640000e-1,-4.00e-2,
-1.600000e-1,-4.00e-2,
-1.560000e-1,-4.20e-2,
-1.520000e-1,-4.20e-2,
-1.480000e-1,-4.20e-2,
-1.440000e-1,-4.20e-2,
-1.400000e-1,-4.40e-2,
-1.360000e-1,-4.40e-2,
-1.320000e-1,-4.40e-2,
-1.280000e-1,-4.40e-2,
-1.240000e-1,-4.40e-2,
-1.200000e-1,-4.40e-2,
-1.160000e-1,-4.40e-2,
-1.120000e-1,-4.40e-2,
-1.080000e-1,-4.40e-2,
-1.040000e-1,-4.40e-2,
-1.000000e-1,-4.40e-2,
-9.600000e-2,-4.40e-2,
-9.200000e-2,-4.20e-2,
-8.800000e-2,-4.20e-2,
-8.400000e-2,-4.40e-2,
-8.000000e-2,-4.40e-2,
-7.600000e-2,-4.60e-2,
-7.200000e-2,-4.60e-2,
-6.800000e-2,-4.60e-2,
-6.400000e-2,-4.60e-2,
-6.000000e-2,-4.20e-2,
-5.600000e-2,-4.20e-2,
-5.200000e-2,-4.60e-2,
-4.800000e-2,-4.60e-2,
-4.400000e-2,-4.60e-2,
-4.000000e-2,-4.60e-2,
-3.600000e-2,-4.60e-2,
-3.200000e-2,-4.60e-2,
-2.800000e-2,-4.40e-2,
-2.400000e-2,-4.40e-2,
-2.000000e-2,-4.40e-2,
-1.600000e-2,-4.40e-2,
-1.200000e-2,-4.60e-2,
-8.000000e-3,-4.60e-2,
-4.000000e-3,-4.60e-2,
1.748601e-15,-4.60e-2,
4.000000e-3,-4.80e-2,
8.000000e-3,-4.80e-2,
1.200000e-2,-5.00e-2,
1.600000e-2,-5.00e-2,
2.000000e-2,-4.60e-2,
2.400000e-2,-4.60e-2,
2.800000e-2,-4.60e-2,
3.200000e-2,-4.60e-2,
3.600000e-2,-5.00e-2,
4.000000e-2,-5.00e-2,
4.400000e-2,-4.80e-2,
4.800000e-2,-4.80e-2,
5.200000e-2,-4.80e-2,
5.600000e-2,-4.80e-2,
6.000000e-2,-5.20e-2,
6.400000e-2,-5.20e-2,
6.800000e-2,-4.60e-2,
7.200000e-2,-4.60e-2,
7.600000e-2,-5.00e-2,
8.000000e-2,-5.00e-2,
8.400000e-2,-5.00e-2,
8.800000e-2,-5.00e-2,
9.200000e-2,-5.00e-2,
9.600000e-2,-5.00e-2,
1.000000e-1,-5.00e-2,
1.040000e-1,-5.00e-2,
1.080000e-1,-5.00e-2,
1.120000e-1,-5.00e-2,
1.160000e-1,-5.20e-2,
1.200000e-1,-5.20e-2,
1.240000e-1,-5.20e-2,
1.280000e-1,-5.20e-2,
1.320000e-1,-5.00e-2,
1.360000e-1,-5.00e-2,
1.400000e-1,-5.20e-2,
1.440000e-1,-5.20e-2,
1.480000e-1,-5.20e-2,
1.520000e-1,-5.20e-2,
1.560000e-1,-5.20e-2,
1.600000e-1,-5.20e-2,
1.640000e-1,-5.00e-2,
1.680000e-1,-5.00e-2,
1.720000e-1,-5.20e-2,
1.760000e-1,-5.20e-2,
1.800000e-1,-5.20e-2,
1.840000e-1,-5.20e-2,
1.880000e-1,-5.40e-2,
1.920000e-1,-5.40e-2,
1.960000e-1,-5.40e-2,
2.000000e-1,-5.40e-2,
2.040000e-1,-5.40e-2,
2.080000e-1,-5.40e-2,
2.120000e-1,-5.20e-2,
2.160000e-1,-5.20e-2,
2.200000e-1,-5.40e-2,
2.240000e-1,-5.40e-2,
2.280000e-1,-5.40e-2,
2.320000e-1,-5.40e-2,
2.360000e-1,-5.40e-2,
2.400000e-1,-5.40e-2,
2.440000e-1,-5.40e-2,
2.480000e-1,-5.40e-2,
2.520000e-1,-5.60e-2,
2.560000e-1,-5.60e-2,
2.600000e-1,-5.40e-2,
2.640000e-1,-5.40e-2,
2.680000e-1,-5.60e-2,
2.720000e-1,-5.60e-2,
2.760000e-1,-5.60e-2,
2.800000e-1,-5.60e-2,
2.840000e-1,-5.80e-2,
2.880000e-1,-5.80e-2,
2.920000e-1,-5.80e-2,
2.960000e-1,-5.80e-2,
3.000000e-1,-5.60e-2,
3.040000e-1,-5.60e-2,
3.080000e-1,-5.40e-2,
3.120000e-1,-5.40e-2,
3.160000e-1,-5.80e-2,
3.200000e-1,-5.80e-2,
3.240000e-1,-5.60e-2,
3.280000e-1,-5.60e-2,
3.320000e-1,-6.00e-2,
3.360000e-1,-6.00e-2,
3.400000e-1,-5.60e-2,
3.440000e-1,-5.60e-2,
3.480000e-1,-5.80e-2,
3.520000e-1,-5.80e-2,
3.560000e-1,-6.00e-2,
3.600000e-1,-6.00e-2,
3.640000e-1,-5.80e-2,
3.680000e-1,-5.80e-2,
3.720000e-1,-6.00e-2,
3.760000e-1,-6.00e-2,
3.800000e-1,-5.80e-2,
3.840000e-1,-5.80e-2,
3.880000e-1,-5.80e-2,
3.920000e-1,-5.80e-2,
3.960000e-1,-6.00e-2,
4.000000e-1,-6.00e-2,
4.040000e-1,-6.00e-2,
4.080000e-1,-6.00e-2,
4.120000e-1,-6.00e-2,
4.160000e-1,-6.00e-2,
4.200000e-1,-6.00e-2,
4.240000e-1,-6.00e-2,
4.280000e-1,-6.00e-2,
4.320000e-1,-6.00e-2,
4.360000e-1,-6.20e-2,
4.400000e-1,-6.20e-2,
4.440000e-1,-6.20e-2,
4.480000e-1,-6.20e-2,
4.520000e-1,-6.20e-2,
4.560000e-1,-6.20e-2,
4.600000e-1,-6.20e-2,
4.640000e-1,-6.20e-2,
4.680000e-1,-6.00e-2,
4.720000e-1,-6.00e-2,
4.760000e-1,-6.20e-2,
4.800000e-1,-6.20e-2,
4.840000e-1,-6.20e-2,
4.880000e-1,-6.20e-2,
4.920000e-1,-6.20e-2,
4.960000e-1,-6.20e-2,
5.000000e-1,-6.40e-2,
5.040000e-1,-6.40e-2,
5.080000e-1,-6.20e-2,
5.120000e-1,-6.20e-2,
5.160000e-1,-6.40e-2,
5.200000e-1,-6.40e-2,
5.240000e-1,-6.40e-2,
5.280000e-1,-6.40e-2,
5.320000e-1,-6.40e-2,
5.360000e-1,-6.40e-2,
5.400000e-1,-6.60e-2,
5.440000e-1,-6.60e-2,
5.480000e-1,-6.60e-2,
5.520000e-1,-6.60e-2,
5.560000e-1,-6.40e-2,
5.600000e-1,-6.40e-2,
5.640000e-1,-6.60e-2,
5.680000e-1,-6.60e-2,
5.720000e-1,-6.60e-2,
5.760000e-1,-6.60e-2,
5.800000e-1,-6.80e-2,
5.840000e-1,-6.80e-2,
5.880000e-1,-6.60e-2,
5.920000e-1,-6.60e-2,
5.960000e-1,-6.60e-2,
6.000000e-1,-6.60e-2,
6.040000e-1,-6.60e-2,
6.080000e-1,-6.60e-2,
6.120000e-1,-6.60e-2,
6.160000e-1,-6.60e-2,
6.200000e-1,-6.60e-2,
6.240000e-1,-6.60e-2,
6.280000e-1,-6.80e-2,
6.320000e-1,-6.80e-2,
6.360000e-1,-6.60e-2,
6.400000e-1,-6.60e-2,
6.440000e-1,-7.00e-2,
6.480000e-1,-7.00e-2,
6.520000e-1,-6.80e-2,
6.560000e-1,-6.80e-2,
6.600000e-1,-6.80e-2,
6.640000e-1,-6.80e-2,
6.680000e-1,-7.00e-2,
6.720000e-1,-7.00e-2,
6.760000e-1,-7.00e-2,
6.800000e-1,-7.00e-2,
6.840000e-1,-7.00e-2,
6.880000e-1,-7.00e-2,
6.920000e-1,-7.00e-2,
6.960000e-1,-7.00e-2,
7.000000e-1,-7.00e-2,
7.040000e-1,-7.00e-2,
7.080000e-1,-7.00e-2,
7.120000e-1,-7.00e-2,
7.160000e-1,-7.20e-2,
7.200000e-1,-7.20e-2,
7.240000e-1,-7.00e-2,
7.280000e-1,-7.00e-2,
7.320000e-1,-7.40e-2,
7.360000e-1,-7.40e-2,
7.400000e-1,-7.00e-2,
7.440000e-1,-7.00e-2,
7.480000e-1,-7.20e-2,
7.520000e-1,-7.20e-2,
7.560000e-1,-7.40e-2,
7.600000e-1,-7.40e-2,
7.640000e-1,-7.20e-2,
7.680000e-1,-7.20e-2,
7.720000e-1,-7.00e-2,
7.760000e-1,-7.00e-2,
7.800000e-1,-7.40e-2,
7.840000e-1,-7.40e-2,
7.880000e-1,-7.20e-2,
7.920000e-1,-7.20e-2,
7.960000e-1,-7.40e-2,
8.000000e-1,-7.40e-2,
8.040000e-1,-7.20e-2,
8.080000e-1,-7.20e-2,
8.120000e-1,-7.60e-2,
8.160000e-1,-7.60e-2,
8.200000e-1,-7.60e-2,
8.240000e-1,-7.60e-2,
8.280000e-1,-7.40e-2,
8.320000e-1,-7.40e-2,
8.360000e-1,-7.60e-2,
8.400000e-1,-7.60e-2,
8.440000e-1,-7.40e-2,
8.480000e-1,-7.40e-2,
8.520000e-1,-7.40e-2,
8.560000e-1,-7.40e-2,
8.600000e-1,-7.40e-2,
8.640000e-1,-7.40e-2,
8.680000e-1,-7.80e-2,
8.720000e-1,-7.80e-2,
8.760000e-1,-7.60e-2,
8.800000e-1,-7.60e-2,
8.840000e-1,-7.60e-2,
8.880000e-1,-7.60e-2,
8.920000e-1,-7.80e-2,
8.960000e-1,-7.80e-2,
9.000000e-1,-7.80e-2,
9.040000e-1,-7.80e-2,
9.080000e-1,-7.60e-2,
9.120000e-1,-7.60e-2,
9.160000e-1,-7.60e-2,
9.200000e-1,-7.60e-2,
9.240000e-1,-7.80e-2,
9.280000e-1,-7.80e-2,
9.320000e-1,-7.80e-2,
9.360000e-1,-7.80e-2,
9.400000e-1,-7.60e-2,
9.440000e-1,-7.60e-2,
9.480000e-1,-7.80e-2,
9.520000e-1,-7.80e-2,
9.560000e-1,-7.80e-2,
9.600000e-1,-7.80e-2,
9.640000e-1,-7.80e-2,
9.680000e-1,-7.80e-2,
9.720000e-1,-7.80e-2,
9.760000e-1,-7.80e-2,
9.800000e-1,-8.20e-2,
9.840000e-1,-8.20e-2,
9.880000e-1,-8.20e-2,
9.920000e-1,-8.20e-2,
9.960000e-1,-7.80e-2,
1.000000e+0,-7.80e-2,
1.004000e+0,-8.00e-2,
1.008000e+0,-8.00e-2,
1.012000e+0,-8.20e-2,
1.016000e+0,-8.20e-2,
1.020000e+0,-8.20e-2,
1.024000e+0,-8.20e-2,
1.028000e+0,-8.20e-2,
1.032000e+0,-8.20e-2,
1.036000e+0,-7.80e-2,
1.040000e+0,-7.80e-2,
1.044000e+0,-8.00e-2,
1.048000e+0,-8.00e-2,
1.052000e+0,-8.00e-2,
1.056000e+0,-8.00e-2,
1.060000e+0,-8.20e-2,
1.064000e+0,-8.20e-2,
1.068000e+0,-8.20e-2,
1.072000e+0,-8.20e-2,
1.076000e+0,-8.20e-2,
1.080000e+0,-8.20e-2,
1.084000e+0,-8.20e-2,
1.088000e+0,-8.20e-2,
1.092000e+0,-8.20e-2,
1.096000e+0,-8.20e-2,
1.100000e+0,-8.20e-2,
1.104000e+0,-8.20e-2,
1.108000e+0,-8.40e-2,
1.112000e+0,-8.40e-2,
1.116000e+0,-8.00e-2,
1.120000e+0,-8.00e-2,
1.124000e+0,-8.40e-2,
1.128000e+0,-8.40e-2,
1.132000e+0,-8.20e-2,
1.136000e+0,-8.20e-2,
1.140000e+0,-8.40e-2,
1.144000e+0,-8.40e-2,
1.148000e+0,-8.20e-2,
1.152000e+0,-8.20e-2,
1.156000e+0,-8.00e-2,
1.160000e+0,-8.00e-2,
1.164000e+0,-8.00e-2,
1.168000e+0,-8.00e-2,
1.172000e+0,-8.20e-2,
1.176000e+0,-8.20e-2,
1.180000e+0,-8.00e-2,
1.184000e+0,-8.00e-2,
1.188000e+0,-8.20e-2,
1.192000e+0,-8.20e-2,
1.196000e+0,-7.80e-2,
1.200000e+0,-7.80e-2,
1.204000e+0,-7.80e-2,
1.208000e+0,-7.80e-2,
1.212000e+0,-7.80e-2,
1.216000e+0,-7.80e-2,
1.220000e+0,-7.80e-2,
1.224000e+0,-7.80e-2,
1.228000e+0,-7.80e-2,
1.232000e+0,-7.80e-2,
1.236000e+0,-7.80e-2,
1.240000e+0,-7.80e-2,
1.244000e+0,-7.80e-2,
1.248000e+0,-7.80e-2,
1.252000e+0,-7.80e-2,
1.256000e+0,-7.80e-2,
1.260000e+0,-7.80e-2,
1.264000e+0,-7.80e-2,
1.268000e+0,-7.80e-2,
1.272000e+0,-7.80e-2,
1.276000e+0,-7.80e-2,
1.280000e+0,-7.80e-2,
1.284000e+0,-7.80e-2,
1.288000e+0,-7.80e-2,
1.292000e+0,-7.80e-2,
1.296000e+0,-7.80e-2,
1.300000e+0,-7.80e-2,
1.304000e+0,-7.80e-2,
1.308000e+0,-7.60e-2,
1.312000e+0,-7.60e-2,
1.316000e+0,-7.60e-2,
1.320000e+0,-7.60e-2,
1.324000e+0,-7.60e-2,
1.328000e+0,-7.60e-2,
1.332000e+0,-7.60e-2,
1.336000e+0,-7.60e-2,
1.340000e+0,-7.40e-2,
1.344000e+0,-7.40e-2,
1.348000e+0,-7.60e-2,
1.352000e+0,-7.60e-2,
1.356000e+0,-7.40e-2,
1.360000e+0,-7.40e-2,
1.364000e+0,-7.40e-2,
1.368000e+0,-7.40e-2,
1.372000e+0,-7.40e-2,
1.376000e+0,-7.40e-2,
1.380000e+0,-7.20e-2,
1.384000e+0,-7.20e-2,
1.388000e+0,-7.40e-2,
1.392000e+0,-7.40e-2,
1.396000e+0,-7.20e-2,
1.400000e+0,-7.20e-2,
1.404000e+0,-7.60e-2,
1.408000e+0,-7.60e-2,
1.412000e+0,-7.20e-2,
1.416000e+0,-7.20e-2,
1.420000e+0,-7.00e-2,
1.424000e+0,-7.00e-2,
1.428000e+0,-7.00e-2,
1.432000e+0,-7.00e-2,
1.436000e+0,-7.00e-2,
1.440000e+0,-7.00e-2,
1.444000e+0,-7.00e-2,
1.448000e+0,-7.00e-2,
1.452000e+0,-7.20e-2,
1.456000e+0,-7.20e-2,
1.460000e+0,-7.40e-2,
1.464000e+0,-7.40e-2,
1.468000e+0,-6.80e-2,
1.472000e+0,-6.80e-2,
1.476000e+0,-7.20e-2,
1.480000e+0,-7.20e-2,
1.484000e+0,-7.00e-2,
1.488000e+0,-7.00e-2,
1.492000e+0,-7.00e-2,
1.496000e+0,-7.00e-2,
1.500000e+0,-7.00e-2,
1.504000e+0,-7.00e-2,
1.508000e+0,-7.00e-2,
1.512000e+0,-7.00e-2,
1.516000e+0,-6.80e-2,
1.520000e+0,-6.80e-2,
1.524000e+0,-7.20e-2,
1.528000e+0,-7.20e-2,
1.532000e+0,-7.40e-2,
1.536000e+0,-7.40e-2,
1.540000e+0,-6.80e-2,
1.544000e+0,-6.80e-2,
1.548000e+0,-6.80e-2,
1.552000e+0,-6.80e-2,
1.556000e+0,-6.80e-2,
1.560000e+0,-6.80e-2,
1.564000e+0,-6.60e-2,
1.568000e+0,-6.60e-2,
1.572000e+0,-6.40e-2,
1.576000e+0,-6.40e-2,
1.580000e+0,-6.80e-2,
1.584000e+0,-6.80e-2,
1.588000e+0,-7.00e-2,
1.592000e+0,-7.00e-2,
1.596000e+0,-6.60e-2,
1.600000e+0,-6.60e-2,
1.604000e+0,-6.60e-2,
1.608000e+0,-6.60e-2,
1.612000e+0,-6.60e-2,
1.616000e+0,-6.60e-2,
1.620000e+0,-6.40e-2,
1.624000e+0,-6.40e-2,
1.628000e+0,-6.60e-2,
1.632000e+0,-6.60e-2,
1.636000e+0,-6.60e-2,
1.640000e+0,-6.60e-2,
1.644000e+0,-6.40e-2,
1.648000e+0,-6.40e-2,
1.652000e+0,-6.40e-2,
1.656000e+0,-6.40e-2,
1.660000e+0,-6.40e-2,
1.664000e+0,-6.40e-2,
1.668000e+0,-6.20e-2,
1.672000e+0,-6.20e-2,
1.676000e+0,-6.20e-2,
1.680000e+0,-6.20e-2,
1.684000e+0,-6.60e-2,
1.688000e+0,-6.60e-2,
1.692000e+0,-6.20e-2,
1.696000e+0,-6.20e-2,
1.700000e+0,-6.40e-2,
1.704000e+0,-6.40e-2,
1.708000e+0,-6.40e-2,
1.712000e+0,-6.40e-2,
1.716000e+0,-6.00e-2,
1.720000e+0,-6.00e-2,
1.724000e+0,-6.00e-2,
1.728000e+0,-6.00e-2,
1.732000e+0,-6.20e-2,
1.736000e+0,-6.20e-2,
1.740000e+0,-5.80e-2,
1.744000e+0,-5.80e-2,
1.748000e+0,-6.00e-2,
1.752000e+0,-6.00e-2,
1.756000e+0,-5.80e-2,
1.760000e+0,-5.80e-2,
1.764000e+0,-6.00e-2,
1.768000e+0,-6.00e-2,
1.772000e+0,-6.20e-2,
1.776000e+0,-6.20e-2,
1.780000e+0,-6.20e-2,
1.784000e+0,-6.20e-2,
1.788000e+0,-6.00e-2,
1.792000e+0,-6.00e-2,
1.796000e+0,-6.00e-2,
1.800000e+0,-6.00e-2,
1.804000e+0,-6.20e-2,
1.808000e+0,-6.20e-2,
1.812000e+0,-5.80e-2,
1.816000e+0,-5.80e-2,
1.820000e+0,-5.80e-2,
1.824000e+0,-5.80e-2,
1.828000e+0,-5.80e-2,
1.832000e+0,-5.80e-2,
1.836000e+0,-6.00e-2,
1.840000e+0,-6.00e-2,
1.844000e+0,-5.80e-2,
1.848000e+0,-5.80e-2,
1.852000e+0,-5.80e-2,
1.856000e+0,-5.80e-2,
1.860000e+0,-5.80e-2,
1.864000e+0,-5.80e-2,
1.868000e+0,-5.60e-2,
1.872000e+0,-5.60e-2,
1.876000e+0,-5.80e-2,
1.880000e+0,-5.80e-2,
1.884000e+0,-5.40e-2,
1.888000e+0,-5.40e-2,
1.892000e+0,-5.60e-2,
1.896000e+0,-5.60e-2,
1.900000e+0,-5.40e-2,
1.904000e+0,-5.40e-2,
1.908000e+0,-5.40e-2,
1.912000e+0,-5.40e-2,
1.916000e+0,-5.40e-2,
1.920000e+0,-5.40e-2,
1.924000e+0,-5.40e-2,
1.928000e+0,-5.40e-2,
1.932000e+0,-5.40e-2,
1.936000e+0,-5.40e-2,
1.940000e+0,-5.40e-2,
1.944000e+0,-5.40e-2,
1.948000e+0,-5.40e-2,
1.952000e+0,-5.40e-2,
1.956000e+0,-5.40e-2,
1.960000e+0,-5.40e-2,
1.964000e+0,-5.40e-2,
1.968000e+0,-5.40e-2,
1.972000e+0,-5.40e-2,
1.976000e+0,-5.40e-2,
1.980000e+0,-5.20e-2,
1.984000e+0,-5.20e-2,
1.988000e+0,-5.20e-2,
1.992000e+0,-5.20e-2,
1.996000e+0,-5.40e-2,
2.000000e+0,-5.40e-2,
2.004000e+0,-5.20e-2,
2.008000e+0,-5.20e-2,
2.012000e+0,-5.20e-2,
2.016000e+0,-5.20e-2,
2.020000e+0,-5.20e-2,
2.024000e+0,-5.20e-2,
2.028000e+0,-5.20e-2,
2.032000e+0,-5.20e-2,
2.036000e+0,-5.00e-2,
2.040000e+0,-5.00e-2,
2.044000e+0,-5.00e-2,
2.048000e+0,-5.00e-2,
2.052000e+0,-4.80e-2,
2.056000e+0,-4.80e-2,
2.060000e+0,-5.20e-2,
2.064000e+0,-5.20e-2,
2.068000e+0,-5.20e-2,
2.072000e+0,-5.20e-2,
2.076000e+0,-5.00e-2,
2.080000e+0,-5.00e-2,
2.084000e+0,-4.80e-2,
2.088000e+0,-4.80e-2,
2.092000e+0,-5.20e-2,
2.096000e+0,-5.20e-2,
2.100000e+0,-5.00e-2,
2.104000e+0,-5.00e-2,
2.108000e+0,-4.80e-2,
2.112000e+0,-4.80e-2,
2.116000e+0,-4.80e-2,
2.120000e+0,-4.80e-2,
2.124000e+0,-5.20e-2,
2.128000e+0,-5.20e-2,
2.132000e+0,-4.80e-2,
2.136000e+0,-4.80e-2,
2.140000e+0,-4.60e-2,
2.144000e+0,-4.60e-2,
2.148000e+0,-4.60e-2,
2.152000e+0,-4.60e-2,
2.156000e+0,-4.60e-2,
2.160000e+0,-4.60e-2,
2.164000e+0,-4.60e-2,
2.168000e+0,-4.60e-2,
2.172000e+0,-4.60e-2,
2.176000e+0,-4.60e-2,
2.180000e+0,-5.00e-2,
2.184000e+0,-5.00e-2,
2.188000e+0,-4.60e-2,
2.192000e+0,-4.60e-2,
2.196000e+0,-4.40e-2,
2.200000e+0,-4.40e-2,
2.204000e+0,-4.60e-2,
2.208000e+0,-4.60e-2,
2.212000e+0,-4.60e-2,
2.216000e+0,-4.60e-2,
2.220000e+0,-4.60e-2,
2.224000e+0,-4.60e-2,
2.228000e+0,-4.40e-2,
2.232000e+0,-4.40e-2,
2.236000e+0,-4.60e-2,
2.240000e+0,-4.60e-2,
2.244000e+0,-4.40e-2,
2.248000e+0,-4.40e-2,
2.252000e+0,-4.40e-2,
2.256000e+0,-4.40e-2,
2.260000e+0,-4.60e-2,
2.264000e+0,-4.60e-2,
2.268000e+0,-4.20e-2,
2.272000e+0,-4.20e-2,
2.276000e+0,-4.40e-2,
2.280000e+0,-4.40e-2,
2.284000e+0,-4.60e-2,
2.288000e+0,-4.60e-2,
2.292000e+0,-4.20e-2,
2.296000e+0,-4.20e-2,
2.300000e+0,-4.40e-2,
2.304000e+0,-4.40e-2,
2.308000e+0,-4.20e-2,
2.312000e+0,-4.20e-2,
2.316000e+0,-4.20e-2,
2.320000e+0,-4.20e-2,
2.324000e+0,-4.00e-2,
2.328000e+0,-4.00e-2,
2.332000e+0,-4.20e-2,
2.336000e+0,-4.20e-2,
2.340000e+0,-4.20e-2,
2.344000e+0,-4.20e-2,
2.348000e+0,-4.00e-2,
2.352000e+0,-4.00e-2,
2.356000e+0,-3.80e-2,
2.360000e+0,-3.80e-2,
2.364000e+0,-4.20e-2,
2.368000e+0,-4.20e-2,
2.372000e+0,-3.80e-2,
2.376000e+0,-3.80e-2,
2.380000e+0,-4.00e-2,
2.384000e+0,-4.00e-2,
2.388000e+0,-3.80e-2,
2.392000e+0,-3.80e-2,
2.396000e+0,-4.20e-2,
2.400000e+0,-4.20e-2,
2.404000e+0,-4.00e-2,
2.408000e+0,-4.00e-2,
2.412000e+0,-3.80e-2,
2.416000e+0,-3.80e-2,
2.420000e+0,-3.80e-2,
2.424000e+0,-3.80e-2,
2.428000e+0,-4.00e-2,
2.432000e+0,-4.00e-2,
2.436000e+0,-3.80e-2,
2.440000e+0,-3.80e-2,
2.444000e+0,-3.80e-2,
2.448000e+0,-3.80e-2,
2.452000e+0,-4.20e-2,
2.456000e+0,-4.20e-2,
2.460000e+0,-3.80e-2,
2.464000e+0,-3.80e-2,
2.468000e+0,-3.80e-2,
2.472000e+0,-3.80e-2,
2.476000e+0,-3.80e-2,
2.480000e+0,-3.80e-2,
2.484000e+0,-3.60e-2,
2.488000e+0,-3.60e-2,
2.492000e+0,-3.80e-2,
2.496000e+0,-3.80e-2,
2.500000e+0,-3.40e-2,
2.504000e+0,-3.40e-2,
2.508000e+0,-3.60e-2,
2.512000e+0,-3.60e-2,
2.516000e+0,-3.40e-2,
2.520000e+0,-3.40e-2,
2.524000e+0,-3.60e-2,
2.528000e+0,-3.60e-2,
2.532000e+0,-3.60e-2,
2.536000e+0,-3.60e-2,
2.540000e+0,-3.60e-2,
2.544000e+0,-3.60e-2,
2.548000e+0,-3.40e-2,
2.552000e+0,-3.40e-2,
2.556000e+0,-3.40e-2,
2.560000e+0,-3.40e-2,
2.564000e+0,-3.40e-2,
2.568000e+0,-3.40e-2,
2.572000e+0,-3.40e-2,
2.576000e+0,-3.40e-2,
2.580000e+0,-3.40e-2,
2.584000e+0,-3.40e-2,
2.588000e+0,-3.40e-2,
2.592000e+0,-3.40e-2,
2.596000e+0,-3.60e-2,
2.600000e+0,-3.60e-2,
2.604000e+0,-3.40e-2,
2.608000e+0,-3.40e-2,
2.612000e+0,-3.00e-2,
2.616000e+0,-3.00e-2,
2.620000e+0,-3.20e-2,
2.624000e+0,-3.20e-2,
2.628000e+0,-3.20e-2,
2.632000e+0,-3.20e-2,
2.636000e+0,-3.00e-2,
2.640000e+0,-3.00e-2,
2.644000e+0,-3.00e-2,
2.648000e+0,-3.00e-2,
2.652000e+0,-3.00e-2,
2.656000e+0,-3.00e-2,
2.660000e+0,-3.00e-2,
2.664000e+0,-3.00e-2,
2.668000e+0,-3.00e-2,
2.672000e+0,-3.00e-2,
2.676000e+0,-3.00e-2,
2.680000e+0,-3.00e-2,
2.684000e+0,-3.00e-2,
2.688000e+0,-3.00e-2,
2.692000e+0,-3.00e-2,
2.696000e+0,-3.00e-2,
2.700000e+0,-2.80e-2,
2.704000e+0,-2.80e-2,
2.708000e+0,-3.00e-2,
2.712000e+0,-3.00e-2,
2.716000e+0,-3.00e-2,
2.720000e+0,-3.00e-2,
2.724000e+0,-3.00e-2,
2.728000e+0,-3.00e-2,
2.732000e+0,-3.00e-2,
2.736000e+0,-3.00e-2,
2.740000e+0,-2.60e-2,
2.744000e+0,-2.60e-2,
2.748000e+0,-3.00e-2,
2.752000e+0,-3.00e-2,
2.756000e+0,-2.80e-2,
2.760000e+0,-2.80e-2,
2.764000e+0,-2.80e-2,
2.768000e+0,-2.80e-2,
2.772000e+0,-2.60e-2,
2.776000e+0,-2.60e-2,
2.780000e+0,-2.80e-2,
2.784000e+0,-2.80e-2,
2.788000e+0,-2.60e-2,
2.792000e+0,-2.60e-2,
2.796000e+0,-2.60e-2,
2.800000e+0,-2.60e-2,
2.804000e+0,-2.40e-2,
2.808000e+0,-2.40e-2,
2.812000e+0,-2.80e-2,
2.816000e+0,-2.80e-2,
2.820000e+0,-2.60e-2,
2.824000e+0,-2.60e-2,
2.828000e+0,-2.60e-2,
2.832000e+0,-2.60e-2,
2.836000e+0,-2.60e-2,
2.840000e+0,-2.60e-2,
2.844000e+0,-2.60e-2,
2.848000e+0,-2.60e-2,
2.852000e+0,-2.60e-2,
2.856000e+0,-2.60e-2,
2.860000e+0,-2.40e-2,
2.864000e+0,-2.40e-2,
2.868000e+0,-2.20e-2,
2.872000e+0,-2.20e-2,
2.876000e+0,-2.40e-2,
2.880000e+0,-2.40e-2,
2.884000e+0,-2.20e-2,
2.888000e+0,-2.20e-2,
2.892000e+0,-2.20e-2,
2.896000e+0,-2.20e-2,
2.900000e+0,-2.20e-2,
2.904000e+0,-2.20e-2,
2.908000e+0,-2.20e-2,
2.912000e+0,-2.20e-2,
2.916000e+0,-2.20e-2,
2.920000e+0,-2.20e-2,
2.924000e+0,-2.00e-2,
2.928000e+0,-2.00e-2,
2.932000e+0,-2.20e-2,
2.936000e+0,-2.20e-2,
2.940000e+0,-2.20e-2,
2.944000e+0,-2.20e-2,
2.948000e+0,-2.20e-2,
2.952000e+0,-2.20e-2,
2.956000e+0,-2.60e-2,
2.960000e+0,-2.60e-2,
2.964000e+0,-2.00e-2,
2.968000e+0,-2.00e-2,
2.972000e+0,-2.00e-2,
2.976000e+0,-2.00e-2,
2.980000e+0,-2.00e-2,
2.984000e+0,-2.00e-2,
2.988000e+0,-2.00e-2,
2.992000e+0,-2.00e-2,
2.996000e+0,-2.00e-2,
3.000000e+0,-2.00e-2,
3.004000e+0,-2.00e-2,
3.008000e+0,-2.00e-2,
3.012000e+0,-2.00e-2,
3.016000e+0,-2.00e-2,
3.020000e+0,-1.80e-2,
3.024000e+0,-1.80e-2,
3.028000e+0,-1.80e-2,
3.032000e+0,-1.80e-2,
3.036000e+0,-2.00e-2,
3.040000e+0,-2.00e-2,
3.044000e+0,-1.80e-2,
3.048000e+0,-1.80e-2,
3.052000e+0,-1.80e-2,
3.056000e+0,-1.80e-2,
3.060000e+0,-1.80e-2,
3.064000e+0,-1.80e-2,
3.068000e+0,-1.60e-2,
3.072000e+0,-1.60e-2,
3.076000e+0,-1.40e-2,
3.080000e+0,-1.40e-2,
3.084000e+0,-1.80e-2,
3.088000e+0,-1.80e-2,
3.092000e+0,-1.60e-2,
3.096000e+0,-1.60e-2,
3.100000e+0,-1.40e-2,
3.104000e+0,-1.40e-2,
3.108000e+0,-1.80e-2,
3.112000e+0,-1.80e-2,
3.116000e+0,-1.80e-2,
3.120000e+0,-1.80e-2,
3.124000e+0,-1.40e-2,
3.128000e+0,-1.40e-2,
3.132000e+0,-1.80e-2,
3.136000e+0,-1.80e-2,
3.140000e+0,-1.60e-2,
3.144000e+0,-1.60e-2,
3.148000e+0,-1.40e-2,
3.152000e+0,-1.40e-2,
3.156000e+0,-1.40e-2,
3.160000e+0,-1.40e-2,
3.164000e+0,-1.40e-2,
3.168000e+0,-1.40e-2,
3.172000e+0,-1.40e-2,
3.176000e+0,-1.40e-2,
3.180000e+0,-1.20e-2,
3.184000e+0,-1.20e-2,
3.188000e+0,-1.20e-2,
3.192000e+0,-1.20e-2,
3.196000e+0,-1.20e-2,
3.200000e+0,-1.20e-2,
3.204000e+0,-1.20e-2,
3.208000e+0,-1.20e-2,
3.212000e+0,-1.40e-2,
3.216000e+0,-1.40e-2,
3.220000e+0,-1.20e-2,
3.224000e+0,-1.20e-2,
3.228000e+0,-1.40e-2,
3.232000e+0,-1.40e-2,
3.236000e+0,-1.20e-2,
3.240000e+0,-1.20e-2,
3.244000e+0,-1.20e-2,
3.248000e+0,-1.20e-2,
3.252000e+0,-1.20e-2,
3.256000e+0,-1.20e-2,
3.260000e+0,-1.20e-2,
3.264000e+0,-1.20e-2,
3.268000e+0,-1.20e-2,
3.272000e+0,-1.20e-2,
3.276000e+0,-1.20e-2,
3.280000e+0,-1.20e-2,
3.284000e+0,-1.00e-2,
3.288000e+0,-1.00e-2,
3.292000e+0,-8.00e-3,
3.296000e+0,-8.00e-3,
3.300000e+0,-1.00e-2,
3.304000e+0,-1.00e-2,
3.308000e+0,-1.00e-2,
3.312000e+0,-1.00e-2,
3.316000e+0,-1.20e-2,
3.320000e+0,-1.20e-2,
3.324000e+0,-1.20e-2,
3.328000e+0,-1.20e-2,
3.332000e+0,-1.00e-2,
3.336000e+0,-1.00e-2,
3.340000e+0,-6.00e-3,
3.344000e+0,-6.00e-3,
3.348000e+0,-1.00e-2,
3.352000e+0,-1.00e-2,
3.356000e+0,-6.00e-3,
3.360000e+0,-6.00e-3,
3.364000e+0,-6.00e-3,
3.368000e+0,-6.00e-3,
3.372000e+0,-6.00e-3,
3.376000e+0,-6.00e-3,
3.380000e+0,-6.00e-3,
3.384000e+0,-6.00e-3,
3.388000e+0,-6.00e-3,
3.392000e+0,-6.00e-3,
3.396000e+0,-6.00e-3,
3.400000e+0,-6.00e-3,
3.404000e+0,-4.00e-3,
3.408000e+0,-4.00e-3,
3.412000e+0,-6.00e-3,
3.416000e+0,-6.00e-3,
3.420000e+0,-6.00e-3,
3.424000e+0,-6.00e-3,
3.428000e+0,-4.00e-3,
3.432000e+0,-4.00e-3,
3.436000e+0,-4.00e-3,
3.440000e+0,-4.00e-3,
3.444000e+0,-4.00e-3,
3.448000e+0,-4.00e-3,
3.452000e+0,-4.00e-3,
3.456000e+0,-4.00e-3,
3.460000e+0,-4.00e-3,
3.464000e+0,-4.00e-3,
3.468000e+0,-4.00e-3,
3.472000e+0,-4.00e-3,
3.476000e+0,-6.00e-3,
3.480000e+0,-6.00e-3,
3.484000e+0,-4.00e-3,
3.488000e+0,-4.00e-3,
3.492000e+0,-4.00e-3,
3.496000e+0,-4.00e-3,
3.500000e+0,-4.00e-3,
3.504000e+0,-4.00e-3,
3.508000e+0,-6.00e-3,
3.512000e+0,-6.00e-3,
3.516000e+0,-4.00e-3,
3.520000e+0,-4.00e-3,
3.524000e+0,-4.00e-3,
3.528000e+0,-4.00e-3,
3.532000e+0,0.00e+0,
3.536000e+0,0.00e+0,
3.540000e+0,-2.00e-3,
3.544000e+0,-2.00e-3,
3.548000e+0,-2.00e-3,
3.552000e+0,-2.00e-3,
3.556000e+0,-4.00e-3,
3.560000e+0,-4.00e-3,
3.564000e+0,-2.00e-3,
3.568000e+0,-2.00e-3,
3.572000e+0,0.00e+0,
3.576000e+0,0.00e+0,
3.580000e+0,-2.00e-3,
3.584000e+0,-2.00e-3,
3.588000e+0,2.00e-3,
3.592000e+0,2.00e-3,
3.596000e+0,0.00e+0,
3.600000e+0,0.00e+0,
3.604000e+0,0.00e+0,
3.608000e+0,0.00e+0,
3.612000e+0,2.00e-3,
3.616000e+0,2.00e-3,
3.620000e+0,-2.00e-3,
3.624000e+0,-2.00e-3,
3.628000e+0,0.00e+0,
3.632000e+0,0.00e+0,
3.636000e+0,2.00e-3,
3.640000e+0,2.00e-3,
3.644000e+0,2.00e-3,
3.648000e+0,2.00e-3,
3.652000e+0,4.00e-3,
3.656000e+0,4.00e-3,
3.660000e+0,2.00e-3,
3.664000e+0,2.00e-3,
3.668000e+0,2.00e-3,
3.672000e+0,2.00e-3,
3.676000e+0,4.00e-3,
3.680000e+0,4.00e-3,
3.684000e+0,4.00e-3,
3.688000e+0,4.00e-3,
3.692000e+0,4.00e-3,
3.696000e+0,4.00e-3,
3.700000e+0,6.00e-3,
3.704000e+0,6.00e-3,
3.708000e+0,4.00e-3,
3.712000e+0,4.00e-3,
3.716000e+0,4.00e-3,
3.720000e+0,4.00e-3,
3.724000e+0,4.00e-3,
3.728000e+0,4.00e-3,
3.732000e+0,4.00e-3,
3.736000e+0,4.00e-3,
3.740000e+0,6.00e-3,
3.744000e+0,6.00e-3,
3.748000e+0,2.00e-3,
3.752000e+0,2.00e-3,
3.756000e+0,6.00e-3,
3.760000e+0,6.00e-3,
3.764000e+0,6.00e-3,
3.768000e+0,6.00e-3,
3.772000e+0,6.00e-3,
3.776000e+0,6.00e-3,
3.780000e+0,4.00e-3,
3.784000e+0,4.00e-3,
3.788000e+0,6.00e-3,
3.792000e+0,6.00e-3,
3.796000e+0,1.00e-2,
3.800000e+0,1.00e-2,
3.804000e+0,8.00e-3,
3.808000e+0,8.00e-3,
3.812000e+0,6.00e-3,
3.816000e+0,6.00e-3,
3.820000e+0,1.00e-2,
3.824000e+0,1.00e-2,
3.828000e+0,8.00e-3,
3.832000e+0,8.00e-3,
3.836000e+0,8.00e-3,
3.840000e+0,8.00e-3,
3.844000e+0,8.00e-3,
3.848000e+0,8.00e-3,
3.852000e+0,6.00e-3,
3.856000e+0,6.00e-3,
3.860000e+0,1.00e-2,
3.864000e+0,1.00e-2,
3.868000e+0,1.00e-2,
3.872000e+0,1.00e-2,
3.876000e+0,8.00e-3,
3.880000e+0,8.00e-3,
3.884000e+0,1.20e-2,
3.888000e+0,1.20e-2,
3.892000e+0,1.00e-2,
3.896000e+0,1.00e-2,
3.900000e+0,1.00e-2,
3.904000e+0,1.00e-2,
3.908000e+0,1.00e-2,
3.912000e+0,1.00e-2,
3.916000e+0,1.20e-2,
3.920000e+0,1.20e-2,
3.924000e+0,1.20e-2,
3.928000e+0,1.20e-2,
3.932000e+0,1.00e-2,
3.936000e+0,1.00e-2,
3.940000e+0,1.40e-2,
3.944000e+0,1.40e-2,
3.948000e+0,1.20e-2,
3.952000e+0,1.20e-2,
3.956000e+0,1.20e-2,
3.960000e+0,1.20e-2,
3.964000e+0,1.20e-2,
3.968000e+0,1.20e-2,
3.972000e+0,1.40e-2,
3.976000e+0,1.40e-2,
3.980000e+0,1.20e-2,
3.984000e+0,1.20e-2,
3.988000e+0,1.20e-2,
3.992000e+0,1.20e-2,
3.996000e+0,1.40e-2,
4.000000e+0,1.40e-2,
4.004000e+0,1.40e-2,
4.008000e+0,1.40e-2,
4.012000e+0,1.40e-2,
4.016000e+0,1.40e-2,
4.020000e+0,1.40e-2,
4.024000e+0,1.40e-2,
4.028000e+0,1.40e-2,
4.032000e+0,1.40e-2,
4.036000e+0,1.40e-2,
4.040000e+0,1.40e-2,
4.044000e+0,1.60e-2,
4.048000e+0,1.60e-2,
4.052000e+0,1.40e-2,
4.056000e+0,1.40e-2,
4.060000e+0,1.60e-2,
4.064000e+0,1.60e-2,
4.068000e+0,1.40e-2,
4.072000e+0,1.40e-2,
4.076000e+0,1.40e-2,
4.080000e+0,1.40e-2,
4.084000e+0,1.80e-2,
4.088000e+0,1.80e-2,
4.092000e+0,1.60e-2,
4.096000e+0,1.60e-2,
4.100000e+0,1.80e-2,
4.104000e+0,1.80e-2,
4.108000e+0,1.60e-2,
4.112000e+0,1.60e-2,
4.116000e+0,1.80e-2,
4.120000e+0,1.80e-2,
4.124000e+0,1.80e-2,
4.128000e+0,1.80e-2,
4.132000e+0,1.80e-2,
4.136000e+0,1.80e-2,
4.140000e+0,1.80e-2,
4.144000e+0,1.80e-2,
4.148000e+0,1.80e-2,
4.152000e+0,1.80e-2,
4.156000e+0,1.80e-2,
4.160000e+0,1.80e-2,
4.164000e+0,1.80e-2,
4.168000e+0,1.80e-2,
4.172000e+0,2.00e-2,
4.176000e+0,2.00e-2,
4.180000e+0,1.80e-2,
4.184000e+0,1.80e-2,
4.188000e+0,2.20e-2,
4.192000e+0,2.20e-2,
4.196000e+0,2.00e-2,
4.200000e+0,2.00e-2,
4.204000e+0,2.20e-2,
4.208000e+0,2.20e-2,
4.212000e+0,2.00e-2,
4.216000e+0,2.00e-2,
4.220000e+0,2.00e-2,
4.224000e+0,2.00e-2,
4.228000e+0,2.00e-2,
4.232000e+0,2.00e-2,
4.236000e+0,2.00e-2,
4.240000e+0,2.00e-2,
4.244000e+0,2.00e-2,
4.248000e+0,2.00e-2,
4.252000e+0,2.20e-2,
4.256000e+0,2.20e-2,
4.260000e+0,2.20e-2,
4.264000e+0,2.20e-2,
4.268000e+0,2.20e-2,
4.272000e+0,2.20e-2,
4.276000e+0,2.40e-2,
4.280000e+0,2.40e-2,
4.284000e+0,2.20e-2,
4.288000e+0,2.20e-2,
4.292000e+0,2.20e-2,
4.296000e+0,2.20e-2,
4.300000e+0,2.40e-2,
4.304000e+0,2.40e-2,
4.308000e+0,2.40e-2,
4.312000e+0,2.40e-2,
4.316000e+0,2.40e-2,
4.320000e+0,2.40e-2,
4.324000e+0,2.40e-2,
4.328000e+0,2.40e-2,
4.332000e+0,2.40e-2,
4.336000e+0,2.40e-2,
4.340000e+0,2.40e-2,
4.344000e+0,2.40e-2,
4.348000e+0,2.20e-2,
4.352000e+0,2.20e-2,
4.356000e+0,2.60e-2,
4.360000e+0,2.60e-2,
4.364000e+0,2.60e-2,
4.368000e+0,2.60e-2,
4.372000e+0,2.60e-2,
4.376000e+0,2.60e-2,
4.380000e+0,2.80e-2,
4.384000e+0,2.80e-2,
4.388000e+0,2.60e-2,
4.392000e+0,2.60e-2,
4.396000e+0,2.80e-2,
4.400000e+0,2.80e-2,
4.404000e+0,2.60e-2,
4.408000e+0,2.60e-2,
4.412000e+0,2.80e-2,
4.416000e+0,2.80e-2,
4.420000e+0,2.80e-2,
4.424000e+0,2.80e-2,
4.428000e+0,2.80e-2,
4.432000e+0,2.80e-2,
4.436000e+0,2.60e-2,
4.440000e+0,2.60e-2,
4.444000e+0,2.80e-2,
4.448000e+0,2.80e-2,
4.452000e+0,3.00e-2,
4.456000e+0,3.00e-2,
4.460000e+0,3.00e-2,
4.464000e+0,3.00e-2,
4.468000e+0,2.80e-2,
4.472000e+0,2.80e-2,
4.476000e+0,2.80e-2,
4.480000e+0,2.80e-2,
4.484000e+0,3.00e-2,
4.488000e+0,3.00e-2,
4.492000e+0,3.20e-2,
4.496000e+0,3.20e-2,
4.500000e+0,3.00e-2,
4.504000e+0,3.00e-2,
4.508000e+0,3.00e-2,
4.512000e+0,3.00e-2,
4.516000e+0,3.00e-2,
4.520000e+0,3.00e-2,
4.524000e+0,3.00e-2,
4.528000e+0,3.00e-2,
4.532000e+0,3.00e-2,
4.536000e+0,3.00e-2,
4.540000e+0,3.20e-2,
4.544000e+0,3.20e-2,
4.548000e+0,3.40e-2,
4.552000e+0,3.40e-2,
4.556000e+0,3.40e-2,
4.560000e+0,3.40e-2,
4.564000e+0,3.40e-2,
4.568000e+0,3.40e-2,
4.572000e+0,3.20e-2,
4.576000e+0,3.20e-2,
4.580000e+0,3.40e-2,
4.584000e+0,3.40e-2,
4.588000e+0,3.40e-2,
4.592000e+0,3.40e-2,
4.596000e+0,3.40e-2,
4.600000e+0,3.40e-2,
4.604000e+0,3.20e-2,
4.608000e+0,3.20e-2,
4.612000e+0,3.00e-2,
4.616000e+0,3.00e-2,
4.620000e+0,3.20e-2,
4.624000e+0,3.20e-2,
4.628000e+0,3.60e-2,
4.632000e+0,3.60e-2,
4.636000e+0,3.40e-2,
4.640000e+0,3.40e-2,
4.644000e+0,3.40e-2,
4.648000e+0,3.40e-2,
4.652000e+0,3.60e-2,
4.656000e+0,3.60e-2,
4.660000e+0,3.40e-2,
4.664000e+0,3.40e-2,
4.668000e+0,3.40e-2,
4.672000e+0,3.40e-2,
4.676000e+0,3.60e-2,
4.680000e+0,3.60e-2,
4.684000e+0,3.40e-2,
4.688000e+0,3.40e-2,
4.692000e+0,3.60e-2,
4.696000e+0,3.60e-2,
4.700000e+0,3.80e-2,
4.704000e+0,3.80e-2,
4.708000e+0,3.80e-2,
4.712000e+0,3.80e-2,
4.716000e+0,3.80e-2,
4.720000e+0,3.80e-2,
4.724000e+0,3.80e-2,
4.728000e+0,3.80e-2,
4.732000e+0,4.00e-2,
4.736000e+0,4.00e-2,
4.740000e+0,3.80e-2,
4.744000e+0,3.80e-2,
4.748000e+0,3.80e-2,
4.752000e+0,3.80e-2,
4.756000e+0,4.00e-2,
4.760000e+0,4.00e-2,
4.764000e+0,3.80e-2,
4.768000e+0,3.80e-2,
4.772000e+0,4.00e-2,
4.776000e+0,4.00e-2,
4.780000e+0,4.20e-2,
4.784000e+0,4.20e-2,
4.788000e+0,4.00e-2,
4.792000e+0,4.00e-2,
4.796000e+0,4.20e-2,
4.800000e+0,4.20e-2,
4.804000e+0,4.20e-2,
4.808000e+0,4.20e-2,
4.812000e+0,4.00e-2,
4.816000e+0,4.00e-2,
4.820000e+0,4.00e-2,
4.824000e+0,4.00e-2,
4.828000e+0,4.20e-2,
4.832000e+0,4.20e-2,
4.836000e+0,3.80e-2,
4.840000e+0,3.80e-2,
4.844000e+0,4.20e-2,
4.848000e+0,4.20e-2,
4.852000e+0,4.20e-2,
4.856000e+0,4.20e-2,
4.860000e+0,4.20e-2,
4.864000e+0,4.20e-2,
4.868000e+0,4.40e-2,
4.872000e+0,4.40e-2,
4.876000e+0,4.20e-2,
4.880000e+0,4.20e-2,
4.884000e+0,4.20e-2,
4.888000e+0,4.20e-2,
4.892000e+0,4.40e-2,
4.896000e+0,4.40e-2,
4.900000e+0,4.40e-2,
4.904000e+0,4.40e-2,
4.908000e+0,4.40e-2,
4.912000e+0,4.40e-2,
4.916000e+0,4.40e-2,
4.920000e+0,4.40e-2,
4.924000e+0,4.40e-2,
4.928000e+0,4.40e-2,
4.932000e+0,4.40e-2,
4.936000e+0,4.40e-2,
4.940000e+0,4.40e-2,
4.944000e+0,4.40e-2,
4.948000e+0,4.80e-2,
4.952000e+0,4.80e-2,
4.956000e+0,4.60e-2,
4.960000e+0,4.60e-2,
4.964000e+0,4.60e-2,
4.968000e+0,4.60e-2,
4.972000e+0,4.60e-2,
4.976000e+0,4.60e-2,
4.980000e+0,4.60e-2,
4.984000e+0,4.60e-2,
4.988000e+0,4.60e-2,
4.992000e+0,4.60e-2,
4.996000e+0,4.40e-2,
5.000000e+0,4.40e-2,
5.004000e+0,4.80e-2,
5.008000e+0,4.80e-2,
5.012000e+0,4.60e-2,
5.016000e+0,4.60e-2,
5.020000e+0,4.40e-2,
5.024000e+0,4.40e-2,
5.028000e+0,4.80e-2,
5.032000e+0,4.80e-2,
5.036000e+0,4.60e-2,
5.040000e+0,4.60e-2,
5.044000e+0,4.80e-2,
5.048000e+0,4.80e-2,
5.052000e+0,5.00e-2,
5.056000e+0,5.00e-2,
5.060000e+0,4.60e-2,
5.064000e+0,4.60e-2,
5.068000e+0,4.60e-2,
5.072000e+0,4.60e-2,
5.076000e+0,5.00e-2,
5.080000e+0,5.00e-2,
5.084000e+0,4.80e-2,
5.088000e+0,4.80e-2,
5.092000e+0,4.80e-2,
5.096000e+0,4.80e-2,
5.100000e+0,5.00e-2,
5.104000e+0,5.00e-2,
5.108000e+0,5.00e-2,
5.112000e+0,5.00e-2,
5.116000e+0,5.00e-2,
5.120000e+0,5.00e-2,
5.124000e+0,5.00e-2,
5.128000e+0,5.00e-2,
5.132000e+0,5.00e-2,
5.136000e+0,5.00e-2,
5.140000e+0,5.00e-2,
5.144000e+0,5.00e-2,
5.148000e+0,5.00e-2,
5.152000e+0,5.00e-2,
5.156000e+0,5.20e-2,
5.160000e+0,5.20e-2,
5.164000e+0,5.00e-2,
5.168000e+0,5.00e-2,
5.172000e+0,5.20e-2,
5.176000e+0,5.20e-2,
5.180000e+0,5.20e-2,
5.184000e+0,5.20e-2,
5.188000e+0,5.00e-2,
5.192000e+0,5.00e-2,
5.196000e+0,5.20e-2,
5.200000e+0,5.20e-2,
5.204000e+0,5.00e-2,
5.208000e+0,5.00e-2,
5.212000e+0,5.40e-2,
5.216000e+0,5.40e-2,
5.220000e+0,5.40e-2,
5.224000e+0,5.40e-2,
5.228000e+0,5.20e-2,
5.232000e+0,5.20e-2,
5.236000e+0,5.40e-2,
5.240000e+0,5.40e-2,
5.244000e+0,5.40e-2,
5.248000e+0,5.40e-2,
5.252000e+0,5.40e-2,
5.256000e+0,5.40e-2,
5.260000e+0,5.20e-2,
5.264000e+0,5.20e-2,
5.268000e+0,5.40e-2,
5.272000e+0,5.40e-2,
5.276000e+0,5.60e-2,
5.280000e+0,5.60e-2,
5.284000e+0,5.80e-2,
5.288000e+0,5.80e-2,
5.292000e+0,5.80e-2,
5.296000e+0,5.80e-2,
5.300000e+0,5.80e-2,
5.304000e+0,5.80e-2,
5.308000e+0,5.80e-2,
5.312000e+0,5.80e-2,
5.316000e+0,5.60e-2,
5.320000e+0,5.60e-2,
5.324000e+0,5.40e-2,
5.328000e+0,5.40e-2,
5.332000e+0,5.60e-2,
5.336000e+0,5.60e-2,
5.340000e+0,5.80e-2,
5.344000e+0,5.80e-2,
5.348000e+0,5.80e-2,
5.352000e+0,5.80e-2,
5.356000e+0,5.80e-2,
5.360000e+0,5.80e-2,
5.364000e+0,5.80e-2,
5.368000e+0,5.80e-2,
5.372000e+0,6.00e-2,
5.376000e+0,6.00e-2,
5.380000e+0,5.80e-2,
5.384000e+0,5.80e-2,
5.388000e+0,5.80e-2,
5.392000e+0,5.80e-2,
5.396000e+0,6.20e-2,
5.400000e+0,6.20e-2,
5.404000e+0,6.20e-2,
5.408000e+0,6.20e-2,
5.412000e+0,6.20e-2,
5.416000e+0,6.20e-2,
5.420000e+0,6.00e-2,
5.424000e+0,6.00e-2,
5.428000e+0,6.20e-2,
5.432000e+0,6.20e-2,
5.436000e+0,6.40e-2,
5.440000e+0,6.40e-2,
5.444000e+0,6.00e-2,
5.448000e+0,6.00e-2,
5.452000e+0,6.00e-2,
5.456000e+0,6.00e-2,
5.460000e+0,6.20e-2,
5.464000e+0,6.20e-2,
5.468000e+0,6.20e-2,
5.472000e+0,6.20e-2,
5.476000e+0,6.20e-2,
5.480000e+0,6.20e-2,
5.484000e+0,6.40e-2,
5.488000e+0,6.40e-2,
5.492000e+0,6.40e-2,
5.496000e+0,6.40e-2,
5.500000e+0,6.00e-2,
5.504000e+0,6.00e-2,
5.508000e+0,6.20e-2,
5.512000e+0,6.20e-2,
5.516000e+0,6.60e-2,
5.520000e+0,6.60e-2,
5.524000e+0,6.20e-2,
5.528000e+0,6.20e-2,
5.532000e+0,6.60e-2,
5.536000e+0,6.60e-2,
5.540000e+0,6.20e-2,
5.544000e+0,6.20e-2,
5.548000e+0,6.40e-2,
5.552000e+0,6.40e-2,
5.556000e+0,6.20e-2,
5.560000e+0,6.20e-2,
5.564000e+0,6.80e-2,
5.568000e+0,6.80e-2,
5.572000e+0,6.40e-2,
5.576000e+0,6.40e-2,
5.580000e+0,6.80e-2,
5.584000e+0,6.80e-2,
5.588000e+0,6.40e-2,
5.592000e+0,6.40e-2,
5.596000e+0,6.60e-2,
5.600000e+0,6.60e-2,
5.604000e+0,6.60e-2,
5.608000e+0,6.60e-2,
5.612000e+0,6.60e-2,
5.616000e+0,6.60e-2,
5.620000e+0,6.60e-2,
5.624000e+0,6.60e-2,
5.628000e+0,6.60e-2,
5.632000e+0,6.60e-2,
5.636000e+0,6.80e-2,
5.640000e+0,6.80e-2,
5.644000e+0,6.60e-2,
5.648000e+0,6.60e-2,
5.652000e+0,6.60e-2,
5.656000e+0,6.60e-2,
5.660000e+0,6.80e-2,
5.664000e+0,6.80e-2,
5.668000e+0,6.80e-2,
5.672000e+0,6.80e-2,
5.676000e+0,7.00e-2,
5.680000e+0,7.00e-2,
5.684000e+0,6.80e-2,
5.688000e+0,6.80e-2,
5.692000e+0,6.80e-2,
5.696000e+0,6.80e-2,
5.700000e+0,7.00e-2,
5.704000e+0,7.00e-2,
5.708000e+0,6.80e-2,
5.712000e+0,6.80e-2,
5.716000e+0,7.00e-2,
5.720000e+0,7.00e-2,
5.724000e+0,7.00e-2,
5.728000e+0,7.00e-2,
5.732000e+0,7.40e-2,
5.736000e+0,7.40e-2,
5.740000e+0,7.00e-2,
5.744000e+0,7.00e-2,
5.748000e+0,7.00e-2,
5.752000e+0,7.00e-2,
5.756000e+0,7.00e-2,
5.760000e+0,7.00e-2,
5.764000e+0,7.00e-2,
5.768000e+0,7.00e-2,
5.772000e+0,7.20e-2,
5.776000e+0,7.20e-2,
5.780000e+0,7.40e-2,
5.784000e+0,7.40e-2,
5.788000e+0,7.20e-2,
5.792000e+0,7.20e-2,
5.796000e+0,7.40e-2,
5.800000e+0,7.40e-2,
5.804000e+0,7.40e-2,
5.808000e+0,7.40e-2,
5.812000e+0,7.40e-2,
5.816000e+0,7.40e-2,
5.820000e+0,7.40e-2,
5.824000e+0,7.40e-2,
5.828000e+0,7.60e-2,
5.832000e+0,7.60e-2,
5.836000e+0,7.60e-2,
5.840000e+0,7.60e-2,
5.844000e+0,7.40e-2,
5.848000e+0,7.40e-2,
5.852000e+0,7.80e-2,
5.856000e+0,7.80e-2,
5.860000e+0,7.40e-2,
5.864000e+0,7.40e-2,
5.868000e+0,7.40e-2,
5.872000e+0,7.40e-2,
5.876000e+0,7.40e-2,
5.880000e+0,7.40e-2,
5.884000e+0,7.40e-2,
5.888000e+0,7.40e-2,
5.892000e+0,8.00e-2,
5.896000e+0,8.00e-2,
5.900000e+0,7.60e-2,
5.904000e+0,7.60e-2,
5.908000e+0,7.80e-2,
5.912000e+0,7.80e-2,
5.916000e+0,7.40e-2,
5.920000e+0,7.40e-2,
5.924000e+0,7.60e-2,
5.928000e+0,7.60e-2,
5.932000e+0,7.60e-2,
5.936000e+0,7.60e-2,
5.940000e+0,7.40e-2,
5.944000e+0,7.40e-2,
5.948000e+0,7.60e-2,
5.952000e+0,7.60e-2,
5.956000e+0,7.40e-2,
5.960000e+0,7.40e-2,
5.964000e+0,7.40e-2,
5.968000e+0,7.40e-2,
5.972000e+0,7.40e-2,
5.976000e+0,7.40e-2,
5.980000e+0,7.80e-2,
5.984000e+0,7.80e-2,
5.988000e+0,7.40e-2,
5.992000e+0,7.40e-2,
5.996000e+0,7.40e-2,
6.000000e+0,7.40e-2,
6.004000e+0,7.20e-2,
6.008000e+0,7.20e-2,
6.012000e+0,7.40e-2,
6.016000e+0,7.40e-2,
6.020000e+0,7.40e-2,
6.024000e+0,7.40e-2,
6.028000e+0,7.40e-2,
6.032000e+0,7.40e-2,
6.036000e+0,7.40e-2,
6.040000e+0,7.40e-2,
6.044000e+0,7.00e-2,
6.048000e+0,7.00e-2,
6.052000e+0,7.40e-2,
6.056000e+0,7.40e-2,
6.060000e+0,7.20e-2,
6.064000e+0,7.20e-2,
6.068000e+0,7.40e-2,
6.072000e+0,7.40e-2,
6.076000e+0,7.20e-2,
6.080000e+0,7.20e-2,
6.084000e+0,7.00e-2,
6.088000e+0,7.00e-2,
6.092000e+0,7.00e-2,
6.096000e+0,7.00e-2,
6.100000e+0,7.20e-2,
6.104000e+0,7.20e-2,
6.108000e+0,7.40e-2,
6.112000e+0,7.40e-2,
6.116000e+0,7.00e-2,
6.120000e+0,7.00e-2,
6.124000e+0,6.80e-2,
6.128000e+0,6.80e-2,
6.132000e+0,6.80e-2,
6.136000e+0,6.80e-2,
6.140000e+0,6.80e-2,
6.144000e+0,6.80e-2,
6.148000e+0,7.00e-2,
6.152000e+0,7.00e-2,
6.156000e+0,6.60e-2,
6.160000e+0,6.60e-2,
6.164000e+0,7.00e-2,
6.168000e+0,7.00e-2,
6.172000e+0,6.80e-2,
6.176000e+0,6.80e-2,
6.180000e+0,6.80e-2,
6.184000e+0,6.80e-2,
6.188000e+0,6.60e-2,
6.192000e+0,6.60e-2,
6.196000e+0,6.80e-2,
6.200000e+0,6.80e-2,
6.204000e+0,6.80e-2,
6.208000e+0,6.80e-2,
6.212000e+0,6.60e-2,
6.216000e+0,6.60e-2,
6.220000e+0,6.60e-2,
6.224000e+0,6.60e-2,
6.228000e+0,6.60e-2,
6.232000e+0,6.60e-2,
6.236000e+0,6.60e-2,
6.240000e+0,6.60e-2,
6.244000e+0,6.60e-2,
6.248000e+0,6.60e-2,
6.252000e+0,6.60e-2,
6.256000e+0,6.60e-2,
6.260000e+0,6.80e-2,
6.264000e+0,6.80e-2,
6.268000e+0,6.60e-2,
6.272000e+0,6.60e-2,
6.276000e+0,6.60e-2,
6.280000e+0,6.60e-2,
6.284000e+0,6.40e-2,
6.288000e+0,6.40e-2,
6.292000e+0,6.20e-2,
6.296000e+0,6.20e-2,
6.300000e+0,6.40e-2,
6.304000e+0,6.40e-2,
6.308000e+0,6.40e-2,
6.312000e+0,6.40e-2,
6.316000e+0,6.40e-2,
6.320000e+0,6.40e-2,
6.324000e+0,6.20e-2,
6.328000e+0,6.20e-2,
6.332000e+0,6.20e-2,
6.336000e+0,6.20e-2,
6.340000e+0,6.20e-2,
6.344000e+0,6.20e-2,
6.348000e+0,6.20e-2,
6.352000e+0,6.20e-2,
6.356000e+0,6.20e-2,
6.360000e+0,6.20e-2,
6.364000e+0,6.20e-2,
6.368000e+0,6.20e-2,
6.372000e+0,6.20e-2,
6.376000e+0,6.20e-2,
6.380000e+0,6.00e-2,
6.384000e+0,6.00e-2,
6.388000e+0,6.00e-2,
6.392000e+0,6.00e-2,
6.396000e+0,6.00e-2,
6.400000e+0,6.00e-2,
6.404000e+0,5.80e-2,
6.408000e+0,5.80e-2,
6.412000e+0,6.00e-2,
6.416000e+0,6.00e-2,
6.420000e+0,6.00e-2,
6.424000e+0,6.00e-2,
6.428000e+0,5.80e-2,
6.432000e+0,5.80e-2,
6.436000e+0,5.80e-2,
6.440000e+0,5.80e-2,
6.444000e+0,5.80e-2,
6.448000e+0,5.80e-2,
6.452000e+0,5.80e-2,
6.456000e+0,5.80e-2,
6.460000e+0,5.80e-2,
6.464000e+0,5.80e-2,
6.468000e+0,5.80e-2,
6.472000e+0,5.80e-2,
6.476000e+0,5.80e-2,
6.480000e+0,5.80e-2,
6.484000e+0,6.00e-2,
6.488000e+0,6.00e-2,
6.492000e+0,6.00e-2,
6.496000e+0,6.00e-2,
6.500000e+0,5.80e-2,
6.504000e+0,5.80e-2,
6.508000e+0,5.80e-2,
6.512000e+0,5.80e-2,
6.516000e+0,5.80e-2,
6.520000e+0,5.80e-2,
6.524000e+0,5.80e-2,
6.528000e+0,5.80e-2,
6.532000e+0,5.40e-2,
6.536000e+0,5.40e-2,
6.540000e+0,5.80e-2,
6.544000e+0,5.80e-2,
6.548000e+0,5.20e-2,
6.552000e+0,5.20e-2,
6.556000e+0,5.60e-2,
6.560000e+0,5.60e-2,
6.564000e+0,5.20e-2,
6.568000e+0,5.20e-2,
6.572000e+0,5.40e-2,
6.576000e+0,5.40e-2,
6.580000e+0,5.40e-2,
6.584000e+0,5.40e-2,
6.588000e+0,5.40e-2,
6.592000e+0,5.40e-2,
6.596000e+0,5.40e-2,
6.600000e+0,5.40e-2,
6.604000e+0,5.40e-2,
6.608000e+0,5.40e-2,
6.612000e+0,5.20e-2,
6.616000e+0,5.20e-2,
6.620000e+0,5.20e-2,
6.624000e+0,5.20e-2,
6.628000e+0,5.40e-2,
6.632000e+0,5.40e-2,
6.636000e+0,5.20e-2,
6.640000e+0,5.20e-2,
6.644000e+0,5.20e-2,
6.648000e+0,5.20e-2,
6.652000e+0,5.40e-2,
6.656000e+0,5.40e-2,
6.660000e+0,5.20e-2,
6.664000e+0,5.20e-2,
6.668000e+0,5.20e-2,
6.672000e+0,5.20e-2,
6.676000e+0,5.00e-2,
6.680000e+0,5.00e-2,
6.684000e+0,5.20e-2,
6.688000e+0,5.20e-2,
6.692000e+0,5.00e-2,
6.696000e+0,5.00e-2,
6.700000e+0,5.00e-2,
6.704000e+0,5.00e-2,
6.708000e+0,5.00e-2,
6.712000e+0,5.00e-2,
6.716000e+0,5.20e-2,
6.720000e+0,5.20e-2,
6.724000e+0,5.00e-2,
6.728000e+0,5.00e-2,
6.732000e+0,5.00e-2,
6.736000e+0,5.00e-2,
6.740000e+0,4.80e-2,
6.744000e+0,4.80e-2,
6.748000e+0,5.00e-2,
6.752000e+0,5.00e-2,
6.756000e+0,4.80e-2,
6.760000e+0,4.80e-2,
6.764000e+0,4.60e-2,
6.768000e+0,4.60e-2,
6.772000e+0,4.80e-2,
6.776000e+0,4.80e-2,
6.780000e+0,4.60e-2,
6.784000e+0,4.60e-2,
6.788000e+0,5.00e-2,
6.792000e+0,5.00e-2,
6.796000e+0,4.80e-2,
6.800000e+0,4.80e-2,
6.804000e+0,4.80e-2,
6.808000e+0,4.80e-2,
6.812000e+0,4.80e-2,
6.816000e+0,4.80e-2,
6.820000e+0,4.60e-2,
6.824000e+0,4.60e-2,
6.828000e+0,4.60e-2,
6.832000e+0,4.60e-2,
6.836000e+0,4.60e-2,
6.840000e+0,4.60e-2,
6.844000e+0,4.20e-2,
6.848000e+0,4.20e-2,
6.852000e+0,4.60e-2,
6.856000e+0,4.60e-2,
6.860000e+0,4.80e-2,
6.864000e+0,4.80e-2,
6.868000e+0,4.40e-2,
6.872000e+0,4.40e-2,
6.876000e+0,4.40e-2,
6.880000e+0,4.40e-2,
6.884000e+0,4.40e-2,
6.888000e+0,4.40e-2,
6.892000e+0,4.60e-2,
6.896000e+0,4.60e-2,
6.900000e+0,4.40e-2,
6.904000e+0,4.40e-2,
6.908000e+0,4.40e-2,
6.912000e+0,4.40e-2,
6.916000e+0,4.40e-2,
6.920000e+0,4.40e-2,
6.924000e+0,4.20e-2,
6.928000e+0,4.20e-2,
6.932000e+0,4.00e-2,
6.936000e+0,4.00e-2,
6.940000e+0,4.20e-2,
6.944000e+0,4.20e-2,
6.948000e+0,4.20e-2,
6.952000e+0,4.20e-2,
6.956000e+0,4.40e-2,
6.960000e+0,4.40e-2,
6.964000e+0,4.20e-2,
6.968000e+0,4.20e-2,
6.972000e+0,4.20e-2,
6.976000e+0,4.20e-2,
6.980000e+0,4.20e-2,
6.984000e+0,4.20e-2,
6.988000e+0,3.80e-2,
6.992000e+0,3.80e-2,
6.996000e+0,4.00e-2,
7.000000e+0,4.00e-2,
7.004000e+0,3.80e-2,
7.008000e+0,3.80e-2,
7.012000e+0,4.00e-2,
7.016000e+0,4.00e-2,
7.020000e+0,4.00e-2,
7.024000e+0,4.00e-2,
7.028000e+0,4.20e-2,
7.032000e+0,4.20e-2,
7.036000e+0,3.80e-2,
7.040000e+0,3.80e-2,
7.044000e+0,3.80e-2,
7.048000e+0,3.80e-2,
7.052000e+0,4.00e-2,
7.056000e+0,4.00e-2,
7.060000e+0,4.00e-2,
7.064000e+0,4.00e-2,
7.068000e+0,4.00e-2,
7.072000e+0,4.00e-2,
7.076000e+0,3.80e-2,
7.080000e+0,3.80e-2,
7.084000e+0,4.00e-2,
7.088000e+0,4.00e-2,
7.092000e+0,3.60e-2,
7.096000e+0,3.60e-2,
7.100000e+0,3.60e-2,
7.104000e+0,3.60e-2,
7.108000e+0,3.60e-2,
7.112000e+0,3.60e-2,
7.116000e+0,3.60e-2,
7.120000e+0,3.60e-2,
7.124000e+0,3.80e-2,
7.128000e+0,3.80e-2,
7.132000e+0,3.60e-2,
7.136000e+0,3.60e-2,
7.140000e+0,3.60e-2,
7.144000e+0,3.60e-2,
7.148000e+0,3.40e-2,
7.152000e+0,3.40e-2,
7.156000e+0,3.80e-2,
7.160000e+0,3.80e-2,
7.164000e+0,3.60e-2,
7.168000e+0,3.60e-2,
7.172000e+0,3.40e-2,
7.176000e+0,3.40e-2,
7.180000e+0,3.40e-2,
7.184000e+0,3.40e-2,
7.188000e+0,3.40e-2,
7.192000e+0,3.40e-2,
7.196000e+0,3.40e-2,
7.200000e+0,3.40e-2,
7.204000e+0,3.40e-2,
7.208000e+0,3.40e-2,
7.212000e+0,3.00e-2,
7.216000e+0,3.00e-2,
7.220000e+0,3.40e-2,
7.224000e+0,3.40e-2,
7.228000e+0,3.20e-2,
7.232000e+0,3.20e-2,
7.236000e+0,3.40e-2,
7.240000e+0,3.40e-2,
7.244000e+0,3.40e-2,
7.248000e+0,3.40e-2,
7.252000e+0,3.20e-2,
7.256000e+0,3.20e-2,
7.260000e+0,3.40e-2,
7.264000e+0,3.40e-2,
7.268000e+0,3.20e-2,
7.272000e+0,3.20e-2,
7.276000e+0,3.20e-2,
7.280000e+0,3.20e-2,
7.284000e+0,3.40e-2,
7.288000e+0,3.40e-2,
7.292000e+0,3.40e-2,
7.296000e+0,3.40e-2,
7.300000e+0,3.20e-2,
7.304000e+0,3.20e-2,
7.308000e+0,3.00e-2,
7.312000e+0,3.00e-2,
7.316000e+0,3.00e-2,
7.320000e+0,3.00e-2,
7.324000e+0,3.00e-2,
7.328000e+0,3.00e-2,
7.332000e+0,3.00e-2,
7.336000e+0,3.00e-2,
7.340000e+0,2.80e-2,
7.344000e+0,2.80e-2,
7.348000e+0,2.80e-2,
7.352000e+0,2.80e-2,
7.356000e+0,3.00e-2,
7.360000e+0,3.00e-2,
7.364000e+0,2.80e-2,
7.368000e+0,2.80e-2,
7.372000e+0,2.80e-2,
7.376000e+0,2.80e-2,
7.380000e+0,2.80e-2,
7.384000e+0,2.80e-2,
7.388000e+0,2.80e-2,
7.392000e+0,2.80e-2,
7.396000e+0,3.00e-2,
7.400000e+0,3.00e-2,
7.404000e+0,2.60e-2,
7.408000e+0,2.60e-2,
7.412000e+0,2.80e-2,
7.416000e+0,2.80e-2,
7.420000e+0,2.60e-2,
7.424000e+0,2.60e-2,
7.428000e+0,2.40e-2,
7.432000e+0,2.40e-2,
7.436000e+0,2.60e-2,
7.440000e+0,2.60e-2,
7.444000e+0,2.60e-2,
7.448000e+0,2.60e-2,
7.452000e+0,2.60e-2,
7.456000e+0,2.60e-2,
7.460000e+0,2.60e-2,
7.464000e+0,2.60e-2,
7.468000e+0,2.60e-2,
7.472000e+0,2.60e-2,
7.476000e+0,2.60e-2,
7.480000e+0,2.60e-2,
7.484000e+0,2.60e-2,
7.488000e+0,2.60e-2,
7.492000e+0,2.60e-2,
7.496000e+0,2.60e-2,
7.500000e+0,2.20e-2,
7.504000e+0,2.20e-2,
7.508000e+0,2.20e-2,
7.512000e+0,2.20e-2,
7.516000e+0,2.20e-2,
7.520000e+0,2.20e-2,
7.524000e+0,2.60e-2,
7.528000e+0,2.60e-2,
7.532000e+0,2.20e-2,
7.536000e+0,2.20e-2,
7.540000e+0,2.20e-2,
7.544000e+0,2.20e-2,
7.548000e+0,2.20e-2,
7.552000e+0,2.20e-2,
7.556000e+0,2.40e-2,
7.560000e+0,2.40e-2,
7.564000e+0,2.20e-2,
7.568000e+0,2.20e-2,
7.572000e+0,2.20e-2,
7.576000e+0,2.20e-2,
7.580000e+0,2.20e-2,
7.584000e+0,2.20e-2,
7.588000e+0,2.20e-2,
7.592000e+0,2.20e-2,
7.596000e+0,2.20e-2,
7.600000e+0,2.20e-2,
7.604000e+0,2.00e-2,
7.608000e+0,2.00e-2,
7.612000e+0,2.00e-2,
7.616000e+0,2.00e-2,
7.620000e+0,2.20e-2,
7.624000e+0,2.20e-2,
7.628000e+0,2.20e-2,
7.632000e+0,2.20e-2,
7.636000e+0,1.80e-2,
7.640000e+0,1.80e-2,
7.644000e+0,1.80e-2,
7.648000e+0,1.80e-2,
7.652000e+0,2.00e-2,
7.656000e+0,2.00e-2,
7.660000e+0,1.80e-2,
7.664000e+0,1.80e-2,
7.668000e+0,1.80e-2,
7.672000e+0,1.80e-2,
7.676000e+0,1.80e-2,
7.680000e+0,1.80e-2,
7.684000e+0,1.80e-2,
7.688000e+0,1.80e-2,
7.692000e+0,1.80e-2,
7.696000e+0,1.80e-2,
7.700000e+0,1.80e-2,
7.704000e+0,1.80e-2,
7.708000e+0,1.80e-2,
7.712000e+0,1.80e-2,
7.716000e+0,2.00e-2,
7.720000e+0,2.00e-2,
7.724000e+0,1.80e-2,
7.728000e+0,1.80e-2,
7.732000e+0,1.80e-2,
7.736000e+0,1.80e-2,
7.740000e+0,1.60e-2,
7.744000e+0,1.60e-2,
7.748000e+0,1.80e-2,
7.752000e+0,1.80e-2,
7.756000e+0,1.40e-2,
7.760000e+0,1.40e-2,
7.764000e+0,1.40e-2,
7.768000e+0,1.40e-2,
7.772000e+0,1.60e-2,
7.776000e+0,1.60e-2,
7.780000e+0,1.40e-2,
7.784000e+0,1.40e-2,
7.788000e+0,1.40e-2,
7.792000e+0,1.40e-2,
7.796000e+0,1.20e-2,
7.800000e+0,1.20e-2,
7.804000e+0,1.40e-2,
7.808000e+0,1.40e-2,
7.812000e+0,1.40e-2,
7.816000e+0,1.40e-2,
7.820000e+0,1.40e-2,
7.824000e+0,1.40e-2,
7.828000e+0,1.20e-2,
7.832000e+0,1.20e-2,
7.836000e+0,1.40e-2,
7.840000e+0,1.40e-2,
7.844000e+0,1.40e-2,
7.848000e+0,1.40e-2,
7.852000e+0,1.20e-2,
7.856000e+0,1.20e-2,
7.860000e+0,1.20e-2,
7.864000e+0,1.20e-2,
7.868000e+0,1.00e-2,
7.872000e+0,1.00e-2,
7.876000e+0,1.20e-2,
7.880000e+0,1.20e-2,
7.884000e+0,1.20e-2,
7.888000e+0,1.20e-2,
7.892000e+0,1.00e-2,
7.896000e+0,1.00e-2,
7.900000e+0,1.00e-2,
7.904000e+0,1.00e-2,
7.908000e+0,1.00e-2,
7.912000e+0,1.00e-2,
7.916000e+0,1.00e-2,
7.920000e+0,1.00e-2,
7.924000e+0,1.00e-2,
7.928000e+0,1.00e-2,
7.932000e+0,1.00e-2,
7.936000e+0,1.00e-2,
7.940000e+0,1.00e-2,
7.944000e+0,1.00e-2,
7.948000e+0,1.00e-2,
7.952000e+0,1.00e-2,
7.956000e+0,1.00e-2,
7.960000e+0,1.00e-2,
7.964000e+0,6.00e-3,
7.968000e+0,6.00e-3,
7.972000e+0,1.00e-2,
7.976000e+0,1.00e-2,
7.980000e+0,1.00e-2,
7.984000e+0,1.00e-2,
7.988000e+0,1.00e-2,
7.992000e+0,1.00e-2,
7.996000e+0,6.00e-3,
8.000000e+0,6.00e-3,
8.004000e+0,6.00e-3,
8.008000e+0,6.00e-3,
8.012000e+0,8.00e-3,
8.016000e+0,8.00e-3,
8.020000e+0,8.00e-3,
8.024000e+0,8.00e-3,
8.028000e+0,8.00e-3,
8.032000e+0,8.00e-3,
8.036000e+0,4.00e-3,
8.040000e+0,4.00e-3,
8.044000e+0,6.00e-3,
8.048000e+0,6.00e-3,
8.052000e+0,6.00e-3,
8.056000e+0,6.00e-3,
8.060000e+0,6.00e-3,
8.064000e+0,6.00e-3,
8.068000e+0,4.00e-3,
8.072000e+0,4.00e-3,
8.076000e+0,2.00e-3,
8.080000e+0,2.00e-3,
8.084000e+0,2.00e-3,
8.088000e+0,2.00e-3,
8.092000e+0,4.00e-3,
8.096000e+0,4.00e-3,
8.100000e+0,2.00e-3,
8.104000e+0,2.00e-3,
8.108000e+0,2.00e-3,
8.112000e+0,2.00e-3,
8.116000e+0,4.00e-3,
8.120000e+0,4.00e-3,
8.124000e+0,2.00e-3,
8.128000e+0,2.00e-3,
8.132000e+0,2.00e-3,
8.136000e+0,2.00e-3,
8.140000e+0,4.00e-3,
8.144000e+0,4.00e-3,
8.148000e+0,4.00e-3,
8.152000e+0,4.00e-3,
8.156000e+0,4.00e-3,
8.160000e+0,4.00e-3,
8.164000e+0,4.00e-3,
8.168000e+0,4.00e-3,
8.172000e+0,0.00e+0,
8.176000e+0,0.00e+0,
8.180000e+0,2.00e-3,
8.184000e+0,2.00e-3,
8.188000e+0,0.00e+0,
8.192000e+0,0.00e+0,
8.196000e+0,0.00e+0,
8.200000e+0,0.00e+0,
8.204000e+0,2.00e-3,
8.208000e+0,2.00e-3,
8.212000e+0,0.00e+0,
8.216000e+0,0.00e+0,
8.220000e+0,0.00e+0,
8.224000e+0,0.00e+0,
8.228000e+0,2.00e-3,
8.232000e+0,2.00e-3,
8.236000e+0,-2.00e-3,
8.240000e+0,-2.00e-3,
8.244000e+0,0.00e+0,
8.248000e+0,0.00e+0,
8.252000e+0,0.00e+0,
8.256000e+0,0.00e+0,
8.260000e+0,-2.00e-3,
8.264000e+0,-2.00e-3,
8.268000e+0,-2.00e-3,
8.272000e+0,-2.00e-3,
8.276000e+0,-2.00e-3,
8.280000e+0,-2.00e-3,
8.284000e+0,-2.00e-3,
8.288000e+0,-2.00e-3,
8.292000e+0,-2.00e-3,
8.296000e+0,-2.00e-3,
8.300000e+0,-2.00e-3,
8.304000e+0,-2.00e-3,
8.308000e+0,-4.00e-3,
8.312000e+0,-4.00e-3,
8.316000e+0,-2.00e-3,
8.320000e+0,-2.00e-3,
8.324000e+0,-4.00e-3,
8.328000e+0,-4.00e-3,
8.332000e+0,-6.00e-3,
8.336000e+0,-6.00e-3,
8.340000e+0,-4.00e-3,
8.344000e+0,-4.00e-3,
8.348000e+0,-4.00e-3,
8.352000e+0,-4.00e-3,
8.356000e+0,-4.00e-3,
8.360000e+0,-4.00e-3,
8.364000e+0,-6.00e-3,
8.368000e+0,-6.00e-3,
8.372000e+0,-4.00e-3,
8.376000e+0,-4.00e-3,
8.380000e+0,-4.00e-3,
8.384000e+0,-4.00e-3,
8.388000e+0,-6.00e-3,
8.392000e+0,-6.00e-3,
8.396000e+0,-6.00e-3,
8.400000e+0,-6.00e-3,
8.404000e+0,-1.00e-2,
8.408000e+0,-1.00e-2,
8.412000e+0,-6.00e-3,
8.416000e+0,-6.00e-3,
8.420000e+0,-6.00e-3,
8.424000e+0,-6.00e-3,
8.428000e+0,-6.00e-3,
8.432000e+0,-6.00e-3,
8.436000e+0,-6.00e-3,
8.440000e+0,-6.00e-3,
8.444000e+0,-8.00e-3,
8.448000e+0,-8.00e-3,
8.452000e+0,-6.00e-3,
8.456000e+0,-6.00e-3,
8.460000e+0,-1.00e-2,
8.464000e+0,-1.00e-2,
8.468000e+0,-1.20e-2,
8.472000e+0,-1.20e-2,
8.476000e+0,-6.00e-3,
8.480000e+0,-6.00e-3,
8.484000e+0,-1.00e-2,
8.488000e+0,-1.00e-2,
8.492000e+0,-1.00e-2,
8.496000e+0,-1.00e-2,
8.500000e+0,-1.00e-2,
8.504000e+0,-1.00e-2,
8.508000e+0,-8.00e-3,
8.512000e+0,-8.00e-3,
8.516000e+0,-1.00e-2,
8.520000e+0,-1.00e-2,
8.524000e+0,-1.00e-2,
8.528000e+0,-1.00e-2,
8.532000e+0,-1.00e-2,
8.536000e+0,-1.00e-2,
8.540000e+0,-1.20e-2,
8.544000e+0,-1.20e-2,
8.548000e+0,-1.00e-2,
8.552000e+0,-1.00e-2,
8.556000e+0,-1.40e-2,
8.560000e+0,-1.40e-2,
8.564000e+0,-1.20e-2,
8.568000e+0,-1.20e-2,
8.572000e+0,-1.00e-2,
8.576000e+0,-1.00e-2,
8.580000e+0,-1.40e-2,
8.584000e+0,-1.40e-2,
8.588000e+0,-1.20e-2,
8.592000e+0,-1.20e-2,
8.596000e+0,-1.20e-2,
8.600000e+0,-1.20e-2,
8.604000e+0,-1.40e-2,
8.608000e+0,-1.40e-2,
8.612000e+0,-1.20e-2,
8.616000e+0,-1.20e-2,
8.620000e+0,-1.40e-2,
8.624000e+0,-1.40e-2,
8.628000e+0,-1.40e-2,
8.632000e+0,-1.40e-2,
8.636000e+0,-1.60e-2,
8.640000e+0,-1.60e-2,
8.644000e+0,-1.40e-2,
8.648000e+0,-1.40e-2,
8.652000e+0,-1.60e-2,
8.656000e+0,-1.60e-2,
8.660000e+0,-1.40e-2,
8.664000e+0,-1.40e-2,
8.668000e+0,-1.60e-2,
8.672000e+0,-1.60e-2,
8.676000e+0,-1.40e-2,
8.680000e+0,-1.40e-2,
8.684000e+0,-1.60e-2,
8.688000e+0,-1.60e-2,
8.692000e+0,-1.40e-2,
8.696000e+0,-1.40e-2,
8.700000e+0,-1.60e-2,
8.704000e+0,-1.60e-2,
8.708000e+0,-1.40e-2,
8.712000e+0,-1.40e-2,
8.716000e+0,-1.80e-2,
8.720000e+0,-1.80e-2,
8.724000e+0,-1.60e-2,
8.728000e+0,-1.60e-2,
8.732000e+0,-1.80e-2,
8.736000e+0,-1.80e-2,
8.740000e+0,-1.80e-2,
8.744000e+0,-1.80e-2,
8.748000e+0,-1.80e-2,
8.752000e+0,-1.80e-2,
8.756000e+0,-1.80e-2,
8.760000e+0,-1.80e-2,
8.764000e+0,-1.80e-2,
8.768000e+0,-1.80e-2,
8.772000e+0,-1.80e-2,
8.776000e+0,-1.80e-2,
8.780000e+0,-1.80e-2,
8.784000e+0,-1.80e-2,
8.788000e+0,-1.80e-2,
8.792000e+0,-1.80e-2,
8.796000e+0,-1.80e-2,
8.800000e+0,-1.80e-2,
8.804000e+0,-2.20e-2,
8.808000e+0,-2.20e-2,
8.812000e+0,-2.00e-2,
8.816000e+0,-2.00e-2,
8.820000e+0,-2.00e-2,
8.824000e+0,-2.00e-2,
8.828000e+0,-2.00e-2,
8.832000e+0,-2.00e-2,
8.836000e+0,-2.20e-2,
8.840000e+0,-2.20e-2,
8.844000e+0,-2.00e-2,
8.848000e+0,-2.00e-2,
8.852000e+0,-2.20e-2,
8.856000e+0,-2.20e-2,
8.860000e+0,-2.00e-2,
8.864000e+0,-2.00e-2,
8.868000e+0,-2.20e-2,
8.872000e+0,-2.20e-2,
8.876000e+0,-2.20e-2,
8.880000e+0,-2.20e-2,
8.884000e+0,-2.00e-2,
8.888000e+0,-2.00e-2,
8.892000e+0,-2.40e-2,
8.896000e+0,-2.40e-2,
8.900000e+0,-2.20e-2,
8.904000e+0,-2.20e-2,
8.908000e+0,-2.20e-2,
8.912000e+0,-2.20e-2,
8.916000e+0,-2.20e-2,
8.920000e+0,-2.20e-2,
8.924000e+0,-2.40e-2,
8.928000e+0,-2.40e-2,
8.932000e+0,-2.20e-2,
8.936000e+0,-2.20e-2,
8.940000e+0,-2.60e-2,
8.944000e+0,-2.60e-2,
8.948000e+0,-2.60e-2,
8.952000e+0,-2.60e-2,
8.956000e+0,-2.20e-2,
8.960000e+0,-2.20e-2,
8.964000e+0,-2.40e-2,
8.968000e+0,-2.40e-2,
8.972000e+0,-2.60e-2,
8.976000e+0,-2.60e-2,
8.980000e+0,-2.60e-2,
8.984000e+0,-2.60e-2,
8.988000e+0,-2.60e-2,
8.992000e+0,-2.60e-2,
8.996000e+0,-2.80e-2,
9.000000e+0,-2.80e-2,
9.004000e+0,-2.60e-2,
9.008000e+0,-2.60e-2,
9.012000e+0,-2.60e-2,
9.016000e+0,-2.60e-2,
9.020000e+0,-2.80e-2,
9.024000e+0,-2.80e-2,
9.028000e+0,-2.80e-2,
9.032000e+0,-2.80e-2,
9.036000e+0,-2.60e-2,
9.040000e+0,-2.60e-2,
9.044000e+0,-2.60e-2,
9.048000e+0,-2.60e-2,
9.052000e+0,-2.80e-2,
9.056000e+0,-2.80e-2,
9.060000e+0,-2.80e-2,
9.064000e+0,-2.80e-2,
9.068000e+0,-3.00e-2,
9.072000e+0,-3.00e-2,
9.076000e+0,-2.80e-2,
9.080000e+0,-2.80e-2,
9.084000e+0,-3.00e-2,
9.088000e+0,-3.00e-2,
9.092000e+0,-2.80e-2,
9.096000e+0,-2.80e-2,
9.100000e+0,-2.80e-2,
9.104000e+0,-2.80e-2,
9.108000e+0,-3.00e-2,
9.112000e+0,-3.00e-2,
9.116000e+0,-3.00e-2,
9.120000e+0,-3.00e-2,
9.124000e+0,-3.00e-2,
9.128000e+0,-3.00e-2,
9.132000e+0,-3.00e-2,
9.136000e+0,-3.00e-2,
9.140000e+0,-3.00e-2,
9.144000e+0,-3.00e-2,
9.148000e+0,-2.80e-2,
9.152000e+0,-2.80e-2,
9.156000e+0,-3.00e-2,
9.160000e+0,-3.00e-2,
9.164000e+0,-3.20e-2,
9.168000e+0,-3.20e-2,
9.172000e+0,-3.20e-2,
9.176000e+0,-3.20e-2,
9.180000e+0,-3.00e-2,
9.184000e+0,-3.00e-2,
9.188000e+0,-3.20e-2,
9.192000e+0,-3.20e-2,
9.196000e+0,-3.20e-2,
9.200000e+0,-3.20e-2,
9.204000e+0,-3.20e-2,
9.208000e+0,-3.20e-2,
9.212000e+0,-3.20e-2,
9.216000e+0,-3.20e-2,
9.220000e+0,-3.40e-2,
9.224000e+0,-3.40e-2,
9.228000e+0,-3.00e-2,
9.232000e+0,-3.00e-2,
9.236000e+0,-3.20e-2,
9.240000e+0,-3.20e-2,
9.244000e+0,-3.60e-2,
9.248000e+0,-3.60e-2,
9.252000e+0,-3.60e-2,
9.256000e+0,-3.60e-2,
9.260000e+0,-3.60e-2,
9.264000e+0,-3.60e-2,
9.268000e+0,-3.80e-2,
9.272000e+0,-3.80e-2,
9.276000e+0,-3.40e-2,
9.280000e+0,-3.40e-2,
9.284000e+0,-3.40e-2,
9.288000e+0,-3.40e-2,
9.292000e+0,-3.60e-2,
9.296000e+0,-3.60e-2,
9.300000e+0,-3.60e-2,
9.304000e+0,-3.60e-2,
9.308000e+0,-3.60e-2,
9.312000e+0,-3.60e-2,
9.316000e+0,-3.60e-2,
9.320000e+0,-3.60e-2,
9.324000e+0,-3.80e-2,
9.328000e+0,-3.80e-2,
9.332000e+0,-3.80e-2,
9.336000e+0,-3.80e-2,
9.340000e+0,-3.60e-2,
9.344000e+0,-3.60e-2,
9.348000e+0,-3.80e-2,
9.352000e+0,-3.80e-2,
9.356000e+0,-3.80e-2,
9.360000e+0,-3.80e-2,
9.364000e+0,-3.80e-2,
9.368000e+0,-3.80e-2,
9.372000e+0,-3.80e-2,
9.376000e+0,-3.80e-2,
9.380000e+0,-3.80e-2,
9.384000e+0,-3.80e-2,
9.388000e+0,-3.80e-2,
9.392000e+0,-3.80e-2,
9.396000e+0,-3.80e-2,
9.400000e+0,-3.80e-2,
9.404000e+0,-3.80e-2,
9.408000e+0,-3.80e-2,
9.412000e+0,-4.00e-2,
9.416000e+0,-4.00e-2,
9.420000e+0,-4.20e-2,
9.424000e+0,-4.20e-2,
9.428000e+0,-4.00e-2,
9.432000e+0,-4.00e-2,
9.436000e+0,-4.00e-2,
9.440000e+0,-4.00e-2,
9.444000e+0,-4.00e-2,
9.448000e+0,-4.00e-2,
9.452000e+0,-4.00e-2,
9.456000e+0,-4.00e-2,
9.460000e+0,-4.20e-2,
9.464000e+0,-4.20e-2,
9.468000e+0,-4.20e-2,
9.472000e+0,-4.20e-2,
9.476000e+0,-4.40e-2,
9.480000e+0,-4.40e-2,
9.484000e+0,-4.20e-2,
9.488000e+0,-4.20e-2,
9.492000e+0,-4.20e-2,
9.496000e+0,-4.20e-2,
9.500000e+0,-4.20e-2,
9.504000e+0,-4.20e-2,
9.508000e+0,-4.60e-2,
9.512000e+0,-4.60e-2,
9.516000e+0,-4.40e-2,
9.520000e+0,-4.40e-2,
9.524000e+0,-4.40e-2,
9.528000e+0,-4.40e-2,
9.532000e+0,-4.40e-2,
9.536000e+0,-4.40e-2,
9.540000e+0,-3.80e-2,
9.544000e+0,-3.80e-2,
9.548000e+0,-4.40e-2,
9.552000e+0,-4.40e-2,
9.556000e+0,-4.40e-2,
9.560000e+0,-4.40e-2,
9.564000e+0,-4.40e-2,
9.568000e+0,-4.40e-2,
9.572000e+0,-4.40e-2,
9.576000e+0,-4.40e-2,
9.580000e+0,-4.60e-2,
9.584000e+0,-4.60e-2,
9.588000e+0,-4.60e-2,
9.592000e+0,-4.60e-2,
9.596000e+0,-4.40e-2,
9.600000e+0,-4.40e-2,
9.604000e+0,-4.40e-2,
9.608000e+0,-4.40e-2,
9.612000e+0,-4.60e-2,
9.616000e+0,-4.60e-2,
9.620000e+0,-4.60e-2,
9.624000e+0,-4.60e-2,
9.628000e+0,-4.80e-2,
9.632000e+0,-4.80e-2,
9.636000e+0,-4.80e-2,
9.640000e+0,-4.80e-2,
9.644000e+0,-4.60e-2,
9.648000e+0,-4.60e-2,
9.652000e+0,-4.60e-2,
9.656000e+0,-4.60e-2,
9.660000e+0,-4.60e-2,
9.664000e+0,-4.60e-2,
9.668000e+0,-5.00e-2,
9.672000e+0,-5.00e-2,
9.676000e+0,-5.00e-2,
9.680000e+0,-5.00e-2,
9.684000e+0,-5.00e-2,
9.688000e+0,-5.00e-2,
9.692000e+0,-4.80e-2,
9.696000e+0,-4.80e-2,
9.700000e+0,-4.80e-2,
9.704000e+0,-4.80e-2,
9.708000e+0,-5.20e-2,
9.712000e+0,-5.20e-2,
9.716000e+0,-4.60e-2,
9.720000e+0,-4.60e-2,
9.724000e+0,-5.00e-2,
9.728000e+0,-5.00e-2,
9.732000e+0,-5.00e-2,
9.736000e+0,-5.00e-2,
9.740000e+0,-5.20e-2,
9.744000e+0,-5.20e-2,
9.748000e+0,-5.20e-2,
9.752000e+0,-5.20e-2,
9.756000e+0,-4.60e-2,
9.760000e+0,-4.60e-2,
9.764000e+0,-5.20e-2,
9.768000e+0,-5.20e-2,
9.772000e+0,-5.00e-2,
9.776000e+0,-5.00e-2,
9.780000e+0,-5.20e-2,
9.784000e+0,-5.20e-2,
9.788000e+0,-5.40e-2,
9.792000e+0,-5.40e-2,
9.796000e+0,-5.20e-2,
9.800000e+0,-5.20e-2,
9.804000e+0,-5.40e-2,
9.808000e+0,-5.40e-2,
9.812000e+0,-4.80e-2,
9.816000e+0,-4.80e-2,
9.820000e+0,-5.00e-2,
9.824000e+0,-5.00e-2,
9.828000e+0,-5.40e-2,
9.832000e+0,-5.40e-2,
9.836000e+0,-5.20e-2,
9.840000e+0,-5.20e-2,
9.844000e+0,-5.60e-2,
9.848000e+0,-5.60e-2,
9.852000e+0,-5.40e-2,
9.856000e+0,-5.40e-2,
9.860000e+0,-5.40e-2,
9.864000e+0,-5.40e-2,
9.868000e+0,-5.40e-2,
9.872000e+0,-5.40e-2,
9.876000e+0,-5.40e-2,
9.880000e+0,-5.40e-2,
9.884000e+0,-5.60e-2,
9.888000e+0,-5.60e-2,
9.892000e+0,-5.60e-2,
9.896000e+0,-5.60e-2,
9.900000e+0,-5.40e-2,
9.904000e+0,-5.40e-2,
9.908000e+0,-5.60e-2,
9.912000e+0,-5.60e-2,
9.916000e+0,-5.80e-2,
9.920000e+0,-5.80e-2,
9.924000e+0,-5.60e-2,
9.928000e+0,-5.60e-2,
9.932000e+0,-5.80e-2,
9.936000e+0,-5.80e-2,
9.940000e+0,-5.60e-2,
9.944000e+0,-5.60e-2,
9.948000e+0,-5.60e-2,
9.952000e+0,-5.60e-2,
9.956000e+0,-6.00e-2,
9.960000e+0,-6.00e-2,
9.964000e+0,-5.80e-2,
9.968000e+0,-5.80e-2,
9.972000e+0,-6.00e-2,
9.976000e+0,-6.00e-2,
9.980000e+0,-5.80e-2,
9.984000e+0,-5.80e-2,
9.988000e+0,-6.20e-2,
9.992000e+0,-6.20e-2,
9.996000e+0,-6.00e-2,
1.000000e+1,-6.00e-2,
1.000400e+1,-5.60e-2,
1.000800e+1,-5.60e-2,
1.001200e+1,-6.00e-2,
1.001600e+1,-6.00e-2,
1.002000e+1,-6.00e-2,
1.002400e+1,-6.00e-2,
1.002800e+1,-6.00e-2,
1.003200e+1,-6.00e-2,
1.003600e+1,-6.20e-2,
1.004000e+1,-6.20e-2,
1.004400e+1,-6.20e-2,
1.004800e+1,-6.20e-2,
1.005200e+1,-6.20e-2,
1.005600e+1,-6.20e-2,
1.006000e+1,-6.20e-2,
1.006400e+1,-6.20e-2,
1.006800e+1,-6.00e-2,
1.007200e+1,-6.00e-2,
1.007600e+1,-6.00e-2,
1.008000e+1,-6.00e-2,
1.008400e+1,-5.80e-2,
1.008800e+1,-5.80e-2,
1.009200e+1,-6.20e-2,
1.009600e+1,-6.20e-2,
1.010000e+1,-6.00e-2,
1.010400e+1,-6.00e-2,
1.010800e+1,-6.20e-2,
1.011200e+1,-6.20e-2,
1.011600e+1,-6.40e-2,
1.012000e+1,-6.40e-2,
1.012400e+1,-6.20e-2,
1.012800e+1,-6.20e-2,
1.013200e+1,-6.20e-2,
1.013600e+1,-6.20e-2,
1.014000e+1,-6.20e-2,
1.014400e+1,-6.20e-2,
1.014800e+1,-6.40e-2,
1.015200e+1,-6.40e-2,
1.015600e+1,-6.40e-2,
1.016000e+1,-6.40e-2,
1.016400e+1,-6.40e-2,
1.016800e+1,-6.40e-2,
1.017200e+1,-6.60e-2,
1.017600e+1,-6.60e-2,
1.018000e+1,-6.20e-2,
1.018400e+1,-6.20e-2,
1.018800e+1,-6.40e-2,
1.019200e+1,-6.40e-2,
1.019600e+1,-6.40e-2,
1.020000e+1,-6.40e-2,
1.020400e+1,-6.60e-2,
1.020800e+1,-6.60e-2,
1.021200e+1,-6.80e-2,
1.021600e+1,-6.80e-2,
1.022000e+1,-6.60e-2,
1.022400e+1,-6.60e-2,
1.022800e+1,-6.60e-2,
1.023200e+1,-6.60e-2,
1.023600e+1,-6.80e-2,
1.024000e+1,-6.80e-2,
1.024400e+1,-7.00e-2,
1.024800e+1,-7.00e-2,
1.025200e+1,-6.60e-2,
1.025600e+1,-6.60e-2,
1.026000e+1,-6.80e-2,
1.026400e+1,-6.80e-2,
1.026800e+1,-7.00e-2,
1.027200e+1,-7.00e-2,
1.027600e+1,-7.00e-2,
1.028000e+1,-7.00e-2,
1.028400e+1,-6.80e-2,
1.028800e+1,-6.80e-2,
1.029200e+1,-6.80e-2,
1.029600e+1,-6.80e-2,
1.030000e+1,-6.80e-2,
1.030400e+1,-6.80e-2,
1.030800e+1,-7.00e-2,
1.031200e+1,-7.00e-2,
1.031600e+1,-6.80e-2,
1.032000e+1,-6.80e-2,
1.032400e+1,-7.00e-2,
1.032800e+1,-7.00e-2,
1.033200e+1,-7.00e-2,
1.033600e+1,-7.00e-2,
1.034000e+1,-7.00e-2,
1.034400e+1,-7.00e-2,
1.034800e+1,-7.40e-2,
1.035200e+1,-7.40e-2,
1.035600e+1,-7.00e-2,
1.036000e+1,-7.00e-2,
1.036400e+1,-7.00e-2,
1.036800e+1,-7.00e-2,
1.037200e+1,-7.00e-2,
1.037600e+1,-7.00e-2,
1.038000e+1,-7.20e-2,
1.038400e+1,-7.20e-2,
1.038800e+1,-7.00e-2,
1.039200e+1,-7.00e-2,
1.039600e+1,-7.40e-2,
1.040000e+1,-7.40e-2,
1.040400e+1,-7.00e-2,
1.040800e+1,-7.00e-2,
1.041200e+1,-7.40e-2,
1.041600e+1,-7.40e-2,
1.042000e+1,-7.40e-2,
1.042400e+1,-7.40e-2,
1.042800e+1,-7.20e-2,
1.043200e+1,-7.20e-2,
1.043600e+1,-7.60e-2,
1.044000e+1,-7.60e-2,
1.044400e+1,-7.40e-2,
1.044800e+1,-7.40e-2,
1.045200e+1,-7.60e-2,
1.045600e+1,-7.60e-2,
1.046000e+1,-7.80e-2,
1.046400e+1,-7.80e-2,
1.046800e+1,-7.60e-2,
1.047200e+1,-7.60e-2,
1.047600e+1,-7.40e-2,
1.048000e+1,-7.40e-2,
1.048400e+1,-7.40e-2,
1.048800e+1,-7.40e-2,
1.049200e+1,-7.60e-2,
1.049600e+1,-7.60e-2,
1.050000e+1,-7.60e-2,
1.050400e+1,-7.60e-2,
1.050800e+1,-7.60e-2,
1.051200e+1,-7.60e-2,
1.051600e+1,-7.60e-2,
1.052000e+1,-7.60e-2,
1.052400e+1,-7.80e-2,
1.052800e+1,-7.80e-2,
1.053200e+1,-7.80e-2,
1.053600e+1,-7.80e-2,
1.054000e+1,-7.80e-2,
1.054400e+1,-7.80e-2,
1.054800e+1,-7.60e-2,
1.055200e+1,-7.60e-2,
1.055600e+1,-7.80e-2,
1.056000e+1,-7.80e-2,
1.056400e+1,-7.80e-2,
1.056800e+1,-7.80e-2,
1.057200e+1,-8.00e-2,
1.057600e+1,-8.00e-2,
1.058000e+1,-7.80e-2,
1.058400e+1,-7.80e-2,
1.058800e+1,-7.80e-2,
1.059200e+1,-7.80e-2,
1.059600e+1,-8.20e-2,
1.060000e+1,-8.20e-2,
1.060400e+1,-7.80e-2,
1.060800e+1,-7.80e-2,
1.061200e+1,-7.80e-2,
1.061600e+1,-7.80e-2,
1.062000e+1,-8.00e-2,
1.062400e+1,-8.00e-2,
1.062800e+1,-8.00e-2,
1.063200e+1,-8.00e-2,
1.063600e+1,-8.00e-2,
1.064000e+1,-8.00e-2,
1.064400e+1,-8.00e-2,
1.064800e+1,-8.00e-2,
1.065200e+1,-8.20e-2,
1.065600e+1,-8.20e-2,
1.066000e+1,-8.20e-2,
1.066400e+1,-8.20e-2,
1.066800e+1,-8.20e-2,
1.067200e+1,-8.20e-2,
1.067600e+1,-8.00e-2,
1.068000e+1,-8.00e-2,
1.068400e+1,-8.00e-2,
1.068800e+1,-8.00e-2,
1.069200e+1,-8.00e-2,
1.069600e+1,-8.00e-2,
1.070000e+1,-8.40e-2,
1.070400e+1,-8.40e-2,
1.070800e+1,-8.20e-2,
1.071200e+1,-8.20e-2,
1.071600e+1,-8.20e-2,
1.072000e+1,-8.20e-2,
1.072400e+1,-8.40e-2,
1.072800e+1,-8.40e-2,
1.073200e+1,-8.40e-2,
1.073600e+1,-8.40e-2,
1.074000e+1,-8.00e-2,
1.074400e+1,-8.00e-2,
1.074800e+1,-8.20e-2,
1.075200e+1,-8.20e-2,
1.075600e+1,-8.20e-2,
1.076000e+1,-8.20e-2,
1.076400e+1,-8.20e-2,
1.076800e+1,-8.20e-2,
1.077200e+1,-8.20e-2,
1.077600e+1,-8.20e-2,
1.078000e+1,-8.20e-2,
1.078400e+1,-8.20e-2,
1.078800e+1,-8.20e-2,
1.079200e+1,-8.20e-2,
1.079600e+1,-7.80e-2,
1.080000e+1,-7.80e-2,
1.080400e+1,-8.00e-2,
1.080800e+1,-8.00e-2,
1.081200e+1,-8.00e-2,
1.081600e+1,-8.00e-2,
1.082000e+1,-8.00e-2,
1.082400e+1,-8.00e-2,
1.082800e+1,-8.00e-2,
1.083200e+1,-8.00e-2,
1.083600e+1,-8.00e-2,
1.084000e+1,-8.00e-2,
1.084400e+1,-7.80e-2,
1.084800e+1,-7.80e-2,
1.085200e+1,-7.80e-2,
1.085600e+1,-7.80e-2,
1.086000e+1,-7.80e-2,
1.086400e+1,-7.80e-2,
1.086800e+1,-7.60e-2,
1.087200e+1,-7.60e-2,
1.087600e+1,-7.80e-2,
1.088000e+1,-7.80e-2,
1.088400e+1,-7.80e-2,
1.088800e+1,-7.80e-2,
1.089200e+1,-7.80e-2,
1.089600e+1,-7.80e-2,
1.090000e+1,-7.60e-2,
1.090400e+1,-7.60e-2,
1.090800e+1,-7.60e-2,
1.091200e+1,-7.60e-2,
1.091600e+1,-7.80e-2,
1.092000e+1,-7.80e-2,
1.092400e+1,-7.80e-2,
1.092800e+1,-7.80e-2,
1.093200e+1,-7.60e-2,
1.093600e+1,-7.60e-2,
1.094000e+1,-7.60e-2,
1.094400e+1,-7.60e-2,
1.094800e+1,-7.40e-2,
1.095200e+1,-7.40e-2,
1.095600e+1,-7.60e-2,
1.096000e+1,-7.60e-2,
1.096400e+1,-7.40e-2,
1.096800e+1,-7.40e-2,
1.097200e+1,-7.60e-2,
1.097600e+1,-7.60e-2,
1.098000e+1,-7.40e-2,
1.098400e+1,-7.40e-2,
1.098800e+1,-7.60e-2,
1.099200e+1,-7.60e-2,
1.099600e+1,-7.40e-2,
1.100000e+1,-7.40e-2,
1.100400e+1,-7.40e-2,
1.100800e+1,-7.40e-2,
1.101200e+1,-7.00e-2,
1.101600e+1,-7.00e-2,
1.102000e+1,-7.20e-2,
1.102400e+1,-7.20e-2,
1.102800e+1,-7.20e-2,
1.103200e+1,-7.20e-2,
1.103600e+1,-7.00e-2,
1.104000e+1,-7.00e-2,
1.104400e+1,-7.40e-2,
1.104800e+1,-7.40e-2,
1.105200e+1,-7.20e-2,
1.105600e+1,-7.20e-2,
1.106000e+1,-7.20e-2,
1.106400e+1,-7.20e-2,
1.106800e+1,-7.00e-2,
1.107200e+1,-7.00e-2,
1.107600e+1,-7.00e-2,
1.108000e+1,-7.00e-2,
1.108400e+1,-7.20e-2,
1.108800e+1,-7.20e-2,
1.109200e+1,-7.00e-2,
1.109600e+1,-7.00e-2,
1.110000e+1,-7.40e-2,
1.110400e+1,-7.40e-2,
1.110800e+1,-7.00e-2,
1.111200e+1,-7.00e-2,
1.111600e+1,-7.00e-2,
1.112000e+1,-7.00e-2,
1.112400e+1,-7.00e-2,
1.112800e+1,-7.00e-2,
1.113200e+1,-7.00e-2,
1.113600e+1,-7.00e-2,
1.114000e+1,-7.00e-2,
1.114400e+1,-7.00e-2,
1.114800e+1,-7.00e-2,
1.115200e+1,-7.00e-2,
1.115600e+1,-6.60e-2,
1.116000e+1,-6.60e-2,
1.116400e+1,-6.80e-2,
1.116800e+1,-6.80e-2,
1.117200e+1,-6.80e-2,
1.117600e+1,-6.80e-2,
1.118000e+1,-6.60e-2,
1.118400e+1,-6.60e-2,
1.118800e+1,-6.80e-2,
1.119200e+1,-6.80e-2,
1.119600e+1,-7.00e-2,
1.120000e+1,-7.00e-2,
1.120400e+1,-6.60e-2,
1.120800e+1,-6.60e-2,
1.121200e+1,-6.60e-2,
1.121600e+1,-6.60e-2,
1.122000e+1,-6.60e-2,
1.122400e+1,-6.60e-2,
1.122800e+1,-6.40e-2,
1.123200e+1,-6.40e-2,
1.123600e+1,-6.40e-2,
1.124000e+1,-6.40e-2,
1.124400e+1,-6.40e-2,
1.124800e+1,-6.40e-2,
1.125200e+1,-6.60e-2,
1.125600e+1,-6.60e-2,
1.126000e+1,-6.60e-2,
1.126400e+1,-6.60e-2,
1.126800e+1,-6.60e-2,
1.127200e+1,-6.60e-2,
1.127600e+1,-6.40e-2,
1.128000e+1,-6.40e-2,
1.128400e+1,-6.40e-2,
1.128800e+1,-6.40e-2,
1.129200e+1,-6.40e-2,
1.129600e+1,-6.40e-2,
1.130000e+1,-6.20e-2,
1.130400e+1,-6.20e-2,
1.130800e+1,-6.40e-2,
1.131200e+1,-6.40e-2,
1.131600e+1,-6.60e-2,
1.132000e+1,-6.60e-2,
1.132400e+1,-6.20e-2,
1.132800e+1,-6.20e-2,
1.133200e+1,-6.20e-2,
1.133600e+1,-6.20e-2,
1.134000e+1,-6.20e-2,
1.134400e+1,-6.20e-2,
1.134800e+1,-6.00e-2,
1.135200e+1,-6.00e-2,
1.135600e+1,-6.00e-2,
1.136000e+1,-6.00e-2,
1.136400e+1,-6.00e-2,
1.136800e+1,-6.00e-2,
1.137200e+1,-6.20e-2,
1.137600e+1,-6.20e-2,
1.138000e+1,-6.00e-2,
1.138400e+1,-6.00e-2,
1.138800e+1,-6.00e-2,
1.139200e+1,-6.00e-2,
1.139600e+1,-5.60e-2,
1.140000e+1,-5.60e-2,
1.140400e+1,-6.00e-2,
1.140800e+1,-6.00e-2,
1.141200e+1,-6.20e-2,
1.141600e+1,-6.20e-2,
1.142000e+1,-5.80e-2,
1.142400e+1,-5.80e-2,
1.142800e+1,-5.80e-2,
1.143200e+1,-5.80e-2,
1.143600e+1,-6.00e-2,
1.144000e+1,-6.00e-2,
1.144400e+1,-6.00e-2,
1.144800e+1,-6.00e-2,
1.145200e+1,-5.80e-2,
1.145600e+1,-5.80e-2,
1.146000e+1,-6.00e-2,
1.146400e+1,-6.00e-2,
1.146800e+1,-6.00e-2,
1.147200e+1,-6.00e-2,
1.147600e+1,-5.80e-2,
1.148000e+1,-5.80e-2,
1.148400e+1,-5.80e-2,
1.148800e+1,-5.80e-2,
1.149200e+1,-6.00e-2,
1.149600e+1,-6.00e-2,
1.150000e+1,-5.80e-2,
1.150400e+1,-5.80e-2,
1.150800e+1,-5.60e-2,
1.151200e+1,-5.60e-2,
1.151600e+1,-5.40e-2,
1.152000e+1,-5.40e-2,
1.152400e+1,-5.80e-2,
1.152800e+1,-5.80e-2,
1.153200e+1,-5.40e-2,
1.153600e+1,-5.40e-2,
1.154000e+1,-5.40e-2,
1.154400e+1,-5.40e-2,
1.154800e+1,-5.40e-2,
1.155200e+1,-5.40e-2,
1.155600e+1,-5.40e-2,
1.156000e+1,-5.40e-2,
1.156400e+1,-5.60e-2,
1.156800e+1,-5.60e-2,
1.157200e+1,-5.60e-2,
1.157600e+1,-5.60e-2,
1.158000e+1,-5.40e-2,
1.158400e+1,-5.40e-2,
1.158800e+1,-5.40e-2,
1.159200e+1,-5.40e-2,
1.159600e+1,-5.20e-2,
1.160000e+1,-5.20e-2,
1.160400e+1,-5.20e-2,
1.160800e+1,-5.20e-2,
1.161200e+1,-5.00e-2,
1.161600e+1,-5.00e-2,
1.162000e+1,-5.20e-2,
1.162400e+1,-5.20e-2,
1.162800e+1,-5.20e-2,
1.163200e+1,-5.20e-2,
1.163600e+1,-5.20e-2,
1.164000e+1,-5.20e-2,
1.164400e+1,-5.00e-2,
1.164800e+1,-5.00e-2,
1.165200e+1,-5.20e-2,
1.165600e+1,-5.20e-2,
1.166000e+1,-5.20e-2,
1.166400e+1,-5.20e-2,
1.166800e+1,-5.00e-2,
1.167200e+1,-5.00e-2,
1.167600e+1,-5.20e-2,
1.168000e+1,-5.20e-2,
1.168400e+1,-5.20e-2,
1.168800e+1,-5.20e-2,
1.169200e+1,-5.20e-2,
1.169600e+1,-5.20e-2,
1.170000e+1,-5.20e-2,
1.170400e+1,-5.20e-2,
1.170800e+1,-4.60e-2,
1.171200e+1,-4.60e-2,
1.171600e+1,-5.20e-2,
1.172000e+1,-5.20e-2,
1.172400e+1,-5.00e-2,
1.172800e+1,-5.00e-2,
1.173200e+1,-5.00e-2,
1.173600e+1,-5.00e-2,
1.174000e+1,-4.80e-2,
1.174400e+1,-4.80e-2,
1.174800e+1,-4.60e-2,
1.175200e+1,-4.60e-2,
1.175600e+1,-5.00e-2,
1.176000e+1,-5.00e-2,
1.176400e+1,-4.80e-2,
1.176800e+1,-4.80e-2,
1.177200e+1,-4.80e-2,
1.177600e+1,-4.80e-2,
1.178000e+1,-4.60e-2,
1.178400e+1,-4.60e-2,
1.178800e+1,-4.80e-2,
1.179200e+1,-4.80e-2,
1.179600e+1,-4.60e-2,
1.180000e+1,-4.60e-2,
1.180400e+1,-4.60e-2,
1.180800e+1,-4.60e-2,
1.181200e+1,-4.40e-2,
1.181600e+1,-4.40e-2,
1.182000e+1,-4.60e-2,
1.182400e+1,-4.60e-2,
1.182800e+1,-4.40e-2,
1.183200e+1,-4.40e-2,
1.183600e+1,-4.40e-2,
1.184000e+1,-4.40e-2,
1.184400e+1,-4.40e-2,
1.184800e+1,-4.40e-2,
1.185200e+1,-4.20e-2,
1.185600e+1,-4.20e-2,
1.186000e+1,-4.40e-2,
1.186400e+1,-4.40e-2,
1.186800e+1,-4.60e-2,
1.187200e+1,-4.60e-2,
1.187600e+1,-4.40e-2,
1.188000e+1,-4.40e-2,
1.188400e+1,-4.40e-2,
1.188800e+1,-4.40e-2,
1.189200e+1,-4.60e-2,
1.189600e+1,-4.60e-2,
1.190000e+1,-4.40e-2,
1.190400e+1,-4.40e-2,
1.190800e+1,-4.40e-2,
1.191200e+1,-4.40e-2,
1.191600e+1,-4.40e-2,
1.192000e+1,-4.40e-2,
1.192400e+1,-4.40e-2,
1.192800e+1,-4.40e-2,
1.193200e+1,-4.20e-2,
1.193600e+1,-4.20e-2,
1.194000e+1,-4.40e-2,
1.194400e+1,-4.40e-2,
1.194800e+1,-4.20e-2,
1.195200e+1,-4.20e-2,
1.195600e+1,-4.00e-2,
1.196000e+1,-4.00e-2,
1.196400e+1,-4.20e-2,
1.196800e+1,-4.20e-2,
1.197200e+1,-4.20e-2,
1.197600e+1,-4.20e-2,
1.198000e+1,-4.20e-2,
1.198400e+1,-4.20e-2,
1.198800e+1,-4.20e-2,
1.199200e+1,-4.20e-2,
1.199600e+1,-3.80e-2,
1.200000e+1,-3.80e-2,
1.200400e+1,-4.00e-2,
1.200800e+1,-4.00e-2,
1.201200e+1,-3.80e-2,
1.201600e+1,-3.80e-2,
1.202000e+1,-3.80e-2,
1.202400e+1,-3.80e-2,
1.202800e+1,-4.20e-2,
1.203200e+1,-4.20e-2,
1.203600e+1,-3.60e-2,
1.204000e+1,-3.60e-2,
1.204400e+1,-4.00e-2,
1.204800e+1,-4.00e-2,
1.205200e+1,-3.80e-2,
1.205600e+1,-3.80e-2,
1.206000e+1,-4.20e-2,
1.206400e+1,-4.20e-2,
1.206800e+1,-4.00e-2,
1.207200e+1,-4.00e-2,
1.207600e+1,-3.80e-2,
1.208000e+1,-3.80e-2,
1.208400e+1,-3.80e-2,
1.208800e+1,-3.80e-2,
1.209200e+1,-3.80e-2,
1.209600e+1,-3.80e-2,
1.210000e+1,-3.80e-2,
1.210400e+1,-3.80e-2,
1.210800e+1,-3.80e-2,
1.211200e+1,-3.80e-2,
1.211600e+1,-3.80e-2,
1.212000e+1,-3.80e-2,
1.212400e+1,-3.60e-2,
1.212800e+1,-3.60e-2,
1.213200e+1,-3.60e-2,
1.213600e+1,-3.60e-2,
1.214000e+1,-3.60e-2,
1.214400e+1,-3.60e-2,
1.214800e+1,-3.40e-2,
1.215200e+1,-3.40e-2,
1.215600e+1,-3.20e-2,
1.216000e+1,-3.20e-2,
1.216400e+1,-3.60e-2,
1.216800e+1,-3.60e-2,
1.217200e+1,-3.40e-2,
1.217600e+1,-3.40e-2,
1.218000e+1,-3.40e-2,
1.218400e+1,-3.40e-2,
1.218800e+1,-3.80e-2,
1.219200e+1,-3.80e-2,
1.219600e+1,-3.40e-2,
1.220000e+1,-3.40e-2,
1.220400e+1,-3.40e-2,
1.220800e+1,-3.40e-2,
1.221200e+1,-3.40e-2,
1.221600e+1,-3.40e-2,
1.222000e+1,-3.20e-2,
1.222400e+1,-3.20e-2,
1.222800e+1,-3.40e-2,
1.223200e+1,-3.40e-2,
1.223600e+1,-3.20e-2,
1.224000e+1,-3.20e-2,
1.224400e+1,-3.40e-2,
1.224800e+1,-3.40e-2,
1.225200e+1,-3.20e-2,
1.225600e+1,-3.20e-2,
1.226000e+1,-3.20e-2,
1.226400e+1,-3.20e-2,
1.226800e+1,-3.00e-2,
1.227200e+1,-3.00e-2,
1.227600e+1,-3.00e-2,
1.228000e+1,-3.00e-2,
1.228400e+1,-3.00e-2,
1.228800e+1,-3.00e-2,
1.229200e+1,-3.00e-2,
1.229600e+1,-3.00e-2,
1.230000e+1,-3.00e-2,
1.230400e+1,-3.00e-2,
1.230800e+1,-3.00e-2,
1.231200e+1,-3.00e-2,
1.231600e+1,-2.80e-2,
1.232000e+1,-2.80e-2,
1.232400e+1,-3.00e-2,
1.232800e+1,-3.00e-2,
1.233200e+1,-3.00e-2,
1.233600e+1,-3.00e-2,
1.234000e+1,-3.00e-2,
1.234400e+1,-3.00e-2,
1.234800e+1,-3.00e-2,
1.235200e+1,-3.00e-2,
1.235600e+1,-2.60e-2,
1.236000e+1,-2.60e-2,
1.236400e+1,-2.80e-2,
1.236800e+1,-2.80e-2,
1.237200e+1,-2.80e-2,
1.237600e+1,-2.80e-2,
1.238000e+1,-2.80e-2,
1.238400e+1,-2.80e-2,
1.238800e+1,-2.80e-2,
1.239200e+1,-2.80e-2,
1.239600e+1,-2.60e-2,
1.240000e+1,-2.60e-2,
1.240400e+1,-2.60e-2,
1.240800e+1,-2.60e-2,
1.241200e+1,-2.60e-2,
1.241600e+1,-2.60e-2,
1.242000e+1,-2.40e-2,
1.242400e+1,-2.40e-2,
1.242800e+1,-2.60e-2,
1.243200e+1,-2.60e-2,
1.243600e+1,-2.60e-2,
1.244000e+1,-2.60e-2,
1.244400e+1,-2.60e-2,
1.244800e+1,-2.60e-2,
1.245200e+1,-2.40e-2,
1.245600e+1,-2.40e-2,
1.246000e+1,-2.60e-2,
1.246400e+1,-2.60e-2,
1.246800e+1,-2.60e-2,
1.247200e+1,-2.60e-2,
1.247600e+1,-2.60e-2,
1.248000e+1,-2.60e-2,
1.248400e+1,-2.40e-2,
1.248800e+1,-2.40e-2,
1.249200e+1,-2.40e-2,
1.249600e+1,-2.40e-2,
1.250000e+1,-2.60e-2,
1.250400e+1,-2.60e-2,
1.250800e+1,-2.20e-2,
1.251200e+1,-2.20e-2,
1.251600e+1,-2.40e-2,
1.252000e+1,-2.40e-2,
1.252400e+1,-2.40e-2,
1.252800e+1,-2.40e-2,
1.253200e+1,-2.20e-2,
1.253600e+1,-2.20e-2,
1.254000e+1,-2.20e-2,
1.254400e+1,-2.20e-2,
1.254800e+1,-2.20e-2,
1.255200e+1,-2.20e-2,
1.255600e+1,-2.20e-2,
1.256000e+1,-2.20e-2,
1.256400e+1,-2.20e-2,
1.256800e+1,-2.20e-2,
1.257200e+1,-2.20e-2,
1.257600e+1,-2.20e-2,
1.258000e+1,-2.20e-2,
1.258400e+1,-2.20e-2,
1.258800e+1,-2.20e-2,
1.259200e+1,-2.20e-2,
1.259600e+1,-2.00e-2,
1.260000e+1,-2.00e-2,
1.260400e+1,-2.20e-2,
1.260800e+1,-2.20e-2,
1.261200e+1,-2.20e-2,
1.261600e+1,-2.20e-2,
1.262000e+1,-1.80e-2,
1.262400e+1,-1.80e-2,
1.262800e+1,-2.00e-2,
1.263200e+1,-2.00e-2,
1.263600e+1,-2.00e-2,
1.264000e+1,-2.00e-2,
1.264400e+1,-1.80e-2,
1.264800e+1,-1.80e-2,
1.265200e+1,-1.80e-2,
1.265600e+1,-1.80e-2,
1.266000e+1,-2.00e-2,
1.266400e+1,-2.00e-2,
1.266800e+1,-2.20e-2,
1.267200e+1,-2.20e-2,
1.267600e+1,-1.60e-2,
1.268000e+1,-1.60e-2,
1.268400e+1,-1.80e-2,
1.268800e+1,-1.80e-2,
1.269200e+1,-1.80e-2,
1.269600e+1,-1.80e-2,
1.270000e+1,-1.80e-2,
1.270400e+1,-1.80e-2,
1.270800e+1,-1.80e-2,
1.271200e+1,-1.80e-2,
1.271600e+1,-1.60e-2,
1.272000e+1,-1.60e-2,
1.272400e+1,-1.80e-2,
1.272800e+1,-1.80e-2,
1.273200e+1,-1.80e-2,
1.273600e+1,-1.80e-2,
1.274000e+1,-1.60e-2,
1.274400e+1,-1.60e-2,
1.274800e+1,-1.60e-2,
1.275200e+1,-1.60e-2,
1.275600e+1,-1.80e-2,
1.276000e+1,-1.80e-2,
1.276400e+1,-1.40e-2,
1.276800e+1,-1.40e-2,
1.277200e+1,-1.40e-2,
1.277600e+1,-1.40e-2,
1.278000e+1,-1.40e-2,
1.278400e+1,-1.40e-2,
1.278800e+1,-1.40e-2,
1.279200e+1,-1.40e-2,
1.279600e+1,-1.40e-2,
1.280000e+1,-1.40e-2,
1.280400e+1,-1.40e-2,
1.280800e+1,-1.40e-2,
1.281200e+1,-1.40e-2,
1.281600e+1,-1.40e-2,
1.282000e+1,-1.40e-2,
1.282400e+1,-1.40e-2,
1.282800e+1,-1.20e-2,
1.283200e+1,-1.20e-2,
1.283600e+1,-1.20e-2,
1.284000e+1,-1.20e-2,
1.284400e+1,-1.40e-2,
1.284800e+1,-1.40e-2,
1.285200e+1,-1.40e-2,
1.285600e+1,-1.40e-2,
1.286000e+1,-1.40e-2,
1.286400e+1,-1.40e-2,
1.286800e+1,-1.20e-2,
1.287200e+1,-1.20e-2,
1.287600e+1,-1.20e-2,
1.288000e+1,-1.20e-2,
1.288400e+1,-1.20e-2,
1.288800e+1,-1.20e-2,
1.289200e+1,-1.20e-2,
1.289600e+1,-1.20e-2,
1.290000e+1,-1.20e-2,
1.290400e+1,-1.20e-2,
1.290800e+1,-1.20e-2,
1.291200e+1,-1.20e-2,
1.291600e+1,-1.20e-2,
1.292000e+1,-1.20e-2,
1.292400e+1,-1.00e-2,
1.292800e+1,-1.00e-2,
1.293200e+1,-8.00e-3,
1.293600e+1,-8.00e-3,
1.294000e+1,-1.00e-2,
1.294400e+1,-1.00e-2,
1.294800e+1,-8.00e-3,
1.295200e+1,-8.00e-3,
1.295600e+1,-8.00e-3,
1.296000e+1,-8.00e-3,
1.296400e+1,-8.00e-3,
1.296800e+1,-8.00e-3,
1.297200e+1,-8.00e-3,
1.297600e+1,-8.00e-3,
1.298000e+1,-6.00e-3,
1.298400e+1,-6.00e-3,
1.298800e+1,-8.00e-3,
1.299200e+1,-8.00e-3,
1.299600e+1,-8.00e-3,
1.300000e+1,-8.00e-3,
1.300400e+1,-8.00e-3,
1.300800e+1,-8.00e-3,
1.301200e+1,-1.00e-2,
1.301600e+1,-1.00e-2,
1.302000e+1,-8.00e-3,
1.302400e+1,-8.00e-3,
1.302800e+1,-6.00e-3,
1.303200e+1,-6.00e-3,
1.303600e+1,-6.00e-3,
1.304000e+1,-6.00e-3,
1.304400e+1,-6.00e-3,
1.304800e+1,-6.00e-3,
1.305200e+1,-6.00e-3,
1.305600e+1,-6.00e-3,
1.306000e+1,-6.00e-3,
1.306400e+1,-6.00e-3,
1.306800e+1,-6.00e-3,
1.307200e+1,-6.00e-3,
1.307600e+1,-6.00e-3,
1.308000e+1,-6.00e-3,
1.308400e+1,-6.00e-3,
1.308800e+1,-6.00e-3,
1.309200e+1,-4.00e-3,
1.309600e+1,-4.00e-3,
1.310000e+1,-4.00e-3,
1.310400e+1,-4.00e-3,
1.310800e+1,-2.00e-3,
1.311200e+1,-2.00e-3,
1.311600e+1,-2.00e-3,
1.312000e+1,-2.00e-3,
1.312400e+1,-4.00e-3,
1.312800e+1,-4.00e-3,
1.313200e+1,-4.00e-3,
1.313600e+1,-4.00e-3,
1.314000e+1,-4.00e-3,
1.314400e+1,-4.00e-3,
1.314800e+1,-2.00e-3,
1.315200e+1,-2.00e-3,
1.315600e+1,-2.00e-3,
1.316000e+1,-2.00e-3,
1.316400e+1,0.00e+0,
1.316800e+1,0.00e+0,
1.317200e+1,-2.00e-3,
1.317600e+1,-2.00e-3,
1.318000e+1,-2.00e-3,
1.318400e+1,-2.00e-3,
1.318800e+1,0.00e+0,
1.319200e+1,0.00e+0,
1.319600e+1,-2.00e-3,
1.320000e+1,-2.00e-3,
1.320400e+1,-2.00e-3,
1.320800e+1,-2.00e-3,
1.321200e+1,0.00e+0,
1.321600e+1,0.00e+0,
1.322000e+1,0.00e+0,
1.322400e+1,0.00e+0,
1.322800e+1,0.00e+0,
1.323200e+1,0.00e+0,
1.323600e+1,4.00e-3,
1.324000e+1,4.00e-3,
1.324400e+1,-2.00e-3,
1.324800e+1,-2.00e-3,
1.325200e+1,2.00e-3,
1.325600e+1,2.00e-3,
1.326000e+1,2.00e-3,
1.326400e+1,2.00e-3,
1.326800e+1,0.00e+0,
1.327200e+1,0.00e+0,
1.327600e+1,4.00e-3,
1.328000e+1,4.00e-3,
1.328400e+1,2.00e-3,
1.328800e+1,2.00e-3,
1.329200e+1,2.00e-3,
1.329600e+1,2.00e-3,
1.330000e+1,2.00e-3,
1.330400e+1,2.00e-3,
1.330800e+1,4.00e-3,
1.331200e+1,4.00e-3,
1.331600e+1,2.00e-3,
1.332000e+1,2.00e-3,
1.332400e+1,2.00e-3,
1.332800e+1,2.00e-3,
1.333200e+1,2.00e-3,
1.333600e+1,2.00e-3,
1.334000e+1,2.00e-3,
1.334400e+1,2.00e-3,
1.334800e+1,6.00e-3,
1.335200e+1,6.00e-3,
1.335600e+1,4.00e-3,
1.336000e+1,4.00e-3,
1.336400e+1,4.00e-3,
1.336800e+1,4.00e-3,
1.337200e+1,4.00e-3,
1.337600e+1,4.00e-3,
1.338000e+1,6.00e-3,
1.338400e+1,6.00e-3,
1.338800e+1,6.00e-3,
1.339200e+1,6.00e-3,
1.339600e+1,6.00e-3,
1.340000e+1,6.00e-3,
1.340400e+1,8.00e-3,
1.340800e+1,8.00e-3,
1.341200e+1,1.00e-2,
1.341600e+1,1.00e-2,
1.342000e+1,6.00e-3,
1.342400e+1,6.00e-3,
1.342800e+1,6.00e-3,
1.343200e+1,6.00e-3,
1.343600e+1,8.00e-3,
1.344000e+1,8.00e-3,
1.344400e+1,6.00e-3,
1.344800e+1,6.00e-3,
1.345200e+1,6.00e-3,
1.345600e+1,6.00e-3,
1.346000e+1,8.00e-3,
1.346400e+1,8.00e-3,
1.346800e+1,8.00e-3,
1.347200e+1,8.00e-3,
1.347600e+1,1.00e-2,
1.348000e+1,1.00e-2,
1.348400e+1,8.00e-3,
1.348800e+1,8.00e-3,
1.349200e+1,1.00e-2,
1.349600e+1,1.00e-2,
1.350000e+1,1.00e-2,
1.350400e+1,1.00e-2,
1.350800e+1,1.00e-2,
1.351200e+1,1.00e-2,
1.351600e+1,1.00e-2,
1.352000e+1,1.00e-2,
1.352400e+1,1.00e-2,
1.352800e+1,1.00e-2,
1.353200e+1,1.00e-2,
1.353600e+1,1.00e-2,
1.354000e+1,1.20e-2,
1.354400e+1,1.20e-2,
1.354800e+1,1.20e-2,
1.355200e+1,1.20e-2,
1.355600e+1,1.20e-2,
1.356000e+1,1.20e-2,
1.356400e+1,1.20e-2,
1.356800e+1,1.20e-2,
1.357200e+1,1.20e-2,
1.357600e+1,1.20e-2,
1.358000e+1,1.20e-2,
1.358400e+1,1.20e-2,
1.358800e+1,1.20e-2,
1.359200e+1,1.20e-2,
1.359600e+1,1.20e-2,
1.360000e+1,1.20e-2,
1.360400e+1,1.40e-2,
1.360800e+1,1.40e-2,
1.361200e+1,1.20e-2,
1.361600e+1,1.20e-2,
1.362000e+1,1.40e-2,
1.362400e+1,1.40e-2,
1.362800e+1,1.20e-2,
1.363200e+1,1.20e-2,
1.363600e+1,1.20e-2,
1.364000e+1,1.20e-2,
1.364400e+1,1.60e-2,
1.364800e+1,1.60e-2,
1.365200e+1,1.40e-2,
1.365600e+1,1.40e-2,
1.366000e+1,1.80e-2,
1.366400e+1,1.80e-2,
1.366800e+1,1.60e-2,
1.367200e+1,1.60e-2,
1.367600e+1,1.40e-2,
1.368000e+1,1.40e-2,
1.368400e+1,1.60e-2,
1.368800e+1,1.60e-2,
1.369200e+1,1.80e-2,
1.369600e+1,1.80e-2,
1.370000e+1,1.60e-2,
1.370400e+1,1.60e-2,
1.370800e+1,1.60e-2,
1.371200e+1,1.60e-2,
1.371600e+1,1.60e-2,
1.372000e+1,1.60e-2,
1.372400e+1,1.80e-2,
1.372800e+1,1.80e-2,
1.373200e+1,1.60e-2,
1.373600e+1,1.60e-2,
1.374000e+1,1.80e-2,
1.374400e+1,1.80e-2,
1.374800e+1,1.80e-2,
1.375200e+1,1.80e-2,
1.375600e+1,1.80e-2,
1.376000e+1,1.80e-2,
1.376400e+1,1.80e-2,
1.376800e+1,1.80e-2,
1.377200e+1,1.80e-2,
1.377600e+1,1.80e-2,
1.378000e+1,2.00e-2,
1.378400e+1,2.00e-2,
1.378800e+1,2.00e-2,
1.379200e+1,2.00e-2,
1.379600e+1,1.80e-2,
1.380000e+1,1.80e-2,
1.380400e+1,1.80e-2,
1.380800e+1,1.80e-2,
1.381200e+1,2.20e-2,
1.381600e+1,2.20e-2,
1.382000e+1,1.80e-2,
1.382400e+1,1.80e-2,
1.382800e+1,2.00e-2,
1.383200e+1,2.00e-2,
1.383600e+1,2.00e-2,
1.384000e+1,2.00e-2,
1.384400e+1,2.20e-2,
1.384800e+1,2.20e-2,
1.385200e+1,2.00e-2,
1.385600e+1,2.00e-2,
1.386000e+1,2.20e-2,
1.386400e+1,2.20e-2,
1.386800e+1,2.00e-2,
1.387200e+1,2.00e-2,
1.387600e+1,2.20e-2,
1.388000e+1,2.20e-2,
1.388400e+1,2.20e-2,
1.388800e+1,2.20e-2,
1.389200e+1,2.40e-2,
1.389600e+1,2.40e-2,
1.390000e+1,2.00e-2,
1.390400e+1,2.00e-2,
1.390800e+1,2.20e-2,
1.391200e+1,2.20e-2,
1.391600e+1,2.40e-2,
1.392000e+1,2.40e-2,
1.392400e+1,2.20e-2,
1.392800e+1,2.20e-2,
1.393200e+1,2.20e-2,
1.393600e+1,2.20e-2,
1.394000e+1,2.40e-2,
1.394400e+1,2.40e-2,
1.394800e+1,2.40e-2,
1.395200e+1,2.40e-2,
1.395600e+1,2.40e-2,
1.396000e+1,2.40e-2,
1.396400e+1,2.40e-2,
1.396800e+1,2.40e-2,
1.397200e+1,2.60e-2,
1.397600e+1,2.60e-2,
1.398000e+1,2.60e-2,
1.398400e+1,2.60e-2,
1.398800e+1,2.60e-2,
1.399200e+1,2.60e-2,
1.399600e+1,2.40e-2,
1.400000e+1,2.40e-2,
1.400400e+1,2.60e-2,
1.400800e+1,2.60e-2,
1.401200e+1,2.60e-2,
1.401600e+1,2.60e-2,
1.402000e+1,2.80e-2,
1.402400e+1,2.80e-2,
1.402800e+1,2.60e-2,
1.403200e+1,2.60e-2,
1.403600e+1,2.80e-2,
1.404000e+1,2.80e-2,
1.404400e+1,2.80e-2,
1.404800e+1,2.80e-2,
1.405200e+1,2.80e-2,
1.405600e+1,2.80e-2,
1.406000e+1,2.80e-2,
1.406400e+1,2.80e-2,
1.406800e+1,2.60e-2,
1.407200e+1,2.60e-2,
1.407600e+1,3.00e-2,
1.408000e+1,3.00e-2,
1.408400e+1,2.80e-2,
1.408800e+1,2.80e-2,
1.409200e+1,2.60e-2,
1.409600e+1,2.60e-2,
1.410000e+1,3.00e-2,
1.410400e+1,3.00e-2,
1.410800e+1,2.80e-2,
1.411200e+1,2.80e-2,
1.411600e+1,2.80e-2,
