Memory Length,4000,
Trigger Level,9.70000e+02,
Source,CH2,
Probe,1.0X,
Vertical Units,V,
Vertical Scale,5.00000e-01,
Vertical Position,-1.68000e+00,
Horizontal Units,S,
Horizontal Scale,5.00000e-01,
Horizontal Position,1.2800000e+00,
Horizontal Mode,Main,
Sampling Period,2.00000e-03,
Firmware,V1.14,
Time, ,
Mode,Detail,
Waveform Data,
-2.720000e+0,8.00e-2,
-2.718000e+0,8.00e-2,
-2.716000e+0,8.00e-2,
-2.714000e+0,4.00e-2,
-2.712000e+0,4.00e-2,
-2.710000e+0,6.00e-2,
-2.708000e+0,6.00e-2,
-2.706000e+0,4.00e-2,
-2.704000e+0,4.00e-2,
-2.702000e+0,4.00e-2,
-2.700000e+0,4.00e-2,
-2.698000e+0,4.00e-2,
-2.696000e+0,4.00e-2,
-2.694000e+0,6.00e-2,
-2.692000e+0,6.00e-2,
-2.690000e+0,4.00e-2,
-2.688000e+0,4.00e-2,
-2.686000e+0,6.00e-2,
-2.684000e+0,6.00e-2,
-2.682000e+0,6.00e-2,
-2.680000e+0,6.00e-2,
-2.678000e+0,4.00e-2,
-2.676000e+0,4.00e-2,
-2.674000e+0,4.00e-2,
-2.672000e+0,4.00e-2,
-2.670000e+0,8.00e-2,
-2.668000e+0,8.00e-2,
-2.666000e+0,6.00e-2,
-2.664000e+0,6.00e-2,
-2.662000e+0,4.00e-2,
-2.660000e+0,4.00e-2,
-2.658000e+0,4.00e-2,
-2.656000e+0,4.00e-2,
-2.654000e+0,6.00e-2,
-2.652000e+0,6.00e-2,
-2.650000e+0,2.00e-2,
-2.648000e+0,2.00e-2,
-2.646000e+0,6.00e-2,
-2.644000e+0,6.00e-2,
-2.642000e+0,6.00e-2,
-2.640000e+0,6.00e-2,
-2.638000e+0,4.00e-2,
-2.636000e+0,4.00e-2,
-2.634000e+0,6.00e-2,
-2.632000e+0,6.00e-2,
-2.630000e+0,4.00e-2,
-2.628000e+0,4.00e-2,
-2.626000e+0,2.00e-2,
-2.624000e+0,2.00e-2,
-2.622000e+0,4.00e-2,
-2.620000e+0,4.00e-2,
-2.618000e+0,6.00e-2,
-2.616000e+0,6.00e-2,
-2.614000e+0,4.00e-2,
-2.612000e+0,4.00e-2,
-2.610000e+0,4.00e-2,
-2.608000e+0,4.00e-2,
-2.606000e+0,6.00e-2,
-2.604000e+0,6.00e-2,
-2.602000e+0,6.00e-2,
-2.600000e+0,6.00e-2,
-2.598000e+0,4.00e-2,
-2.596000e+0,4.00e-2,
-2.594000e+0,4.00e-2,
-2.592000e+0,4.00e-2,
-2.590000e+0,6.00e-2,
-2.588000e+0,6.00e-2,
-2.586000e+0,4.00e-2,
-2.584000e+0,4.00e-2,
-2.582000e+0,4.00e-2,
-2.580000e+0,4.00e-2,
-2.578000e+0,4.00e-2,
-2.576000e+0,4.00e-2,
-2.574000e+0,4.00e-2,
-2.572000e+0,4.00e-2,
-2.570000e+0,4.00e-2,
-2.568000e+0,4.00e-2,
-2.566000e+0,4.00e-2,
-2.564000e+0,4.00e-2,
-2.562000e+0,6.00e-2,
-2.560000e+0,6.00e-2,
-2.558000e+0,4.00e-2,
-2.556000e+0,4.00e-2,
-2.554000e+0,4.00e-2,
-2.552000e+0,4.00e-2,
-2.550000e+0,4.00e-2,
-2.548000e+0,4.00e-2,
-2.546000e+0,4.00e-2,
-2.544000e+0,4.00e-2,
-2.542000e+0,4.00e-2,
-2.540000e+0,4.00e-2,
-2.538000e+0,4.00e-2,
-2.536000e+0,4.00e-2,
-2.534000e+0,4.00e-2,
-2.532000e+0,4.00e-2,
-2.530000e+0,4.00e-2,
-2.528000e+0,4.00e-2,
-2.526000e+0,4.00e-2,
-2.524000e+0,4.00e-2,
-2.522000e+0,4.00e-2,
-2.520000e+0,4.00e-2,
-2.518000e+0,4.00e-2,
-2.516000e+0,4.00e-2,
-2.514000e+0,4.00e-2,
-2.512000e+0,4.00e-2,
-2.510000e+0,4.00e-2,
-2.508000e+0,4.00e-2,
-2.506000e+0,2.00e-2,
-2.504000e+0,2.00e-2,
-2.502000e+0,4.00e-2,
-2.500000e+0,4.00e-2,
-2.498000e+0,6.00e-2,
-2.496000e+0,6.00e-2,
-2.494000e+0,4.00e-2,
-2.492000e+0,4.00e-2,
-2.490000e+0,2.00e-2,
-2.488000e+0,2.00e-2,
-2.486000e+0,4.00e-2,
-2.484000e+0,4.00e-2,
-2.482000e+0,4.00e-2,
-2.480000e+0,4.00e-2,
-2.478000e+0,2.00e-2,
-2.476000e+0,2.00e-2,
-2.474000e+0,4.00e-2,
-2.472000e+0,4.00e-2,
-2.470000e+0,6.00e-2,
-2.468000e+0,6.00e-2,
-2.466000e+0,4.00e-2,
-2.464000e+0,4.00e-2,
-2.462000e+0,4.00e-2,
-2.460000e+0,4.00e-2,
-2.458000e+0,2.00e-2,
-2.456000e+0,2.00e-2,
-2.454000e+0,4.00e-2,
-2.452000e+0,4.00e-2,
-2.450000e+0,4.00e-2,
-2.448000e+0,4.00e-2,
-2.446000e+0,4.00e-2,
-2.444000e+0,4.00e-2,
-2.442000e+0,4.00e-2,
-2.440000e+0,4.00e-2,
-2.438000e+0,4.00e-2,
-2.436000e+0,4.00e-2,
-2.434000e+0,4.00e-2,
-2.432000e+0,4.00e-2,
-2.430000e+0,4.00e-2,
-2.428000e+0,4.00e-2,
-2.426000e+0,4.00e-2,
-2.424000e+0,4.00e-2,
-2.422000e+0,4.00e-2,
-2.420000e+0,4.00e-2,
-2.418000e+0,4.00e-2,
-2.416000e+0,4.00e-2,
-2.414000e+0,2.00e-2,
-2.412000e+0,2.00e-2,
-2.410000e+0,4.00e-2,
-2.408000e+0,4.00e-2,
-2.406000e+0,6.00e-2,
-2.404000e+0,6.00e-2,
-2.402000e+0,4.00e-2,
-2.400000e+0,4.00e-2,
-2.398000e+0,4.00e-2,
-2.396000e+0,4.00e-2,
-2.394000e+0,4.00e-2,
-2.392000e+0,4.00e-2,
-2.390000e+0,4.00e-2,
-2.388000e+0,4.00e-2,
-2.386000e+0,4.00e-2,
-2.384000e+0,4.00e-2,
-2.382000e+0,4.00e-2,
-2.380000e+0,4.00e-2,
-2.378000e+0,4.00e-2,
-2.376000e+0,4.00e-2,
-2.374000e+0,4.00e-2,
-2.372000e+0,4.00e-2,
-2.370000e+0,4.00e-2,
-2.368000e+0,4.00e-2,
-2.366000e+0,4.00e-2,
-2.364000e+0,4.00e-2,
-2.362000e+0,2.00e-2,
-2.360000e+0,2.00e-2,
-2.358000e+0,2.00e-2,
-2.356000e+0,2.00e-2,
-2.354000e+0,2.00e-2,
-2.352000e+0,2.00e-2,
-2.350000e+0,4.00e-2,
-2.348000e+0,4.00e-2,
-2.346000e+0,4.00e-2,
-2.344000e+0,4.00e-2,
-2.342000e+0,4.00e-2,
-2.340000e+0,4.00e-2,
-2.338000e+0,4.00e-2,
-2.336000e+0,4.00e-2,
-2.334000e+0,4.00e-2,
-2.332000e+0,4.00e-2,
-2.330000e+0,4.00e-2,
-2.328000e+0,4.00e-2,
-2.326000e+0,2.00e-2,
-2.324000e+0,2.00e-2,
-2.322000e+0,4.00e-2,
-2.320000e+0,4.00e-2,
-2.318000e+0,4.00e-2,
-2.316000e+0,4.00e-2,
-2.314000e+0,4.00e-2,
-2.312000e+0,4.00e-2,
-2.310000e+0,2.00e-2,
-2.308000e+0,2.00e-2,
-2.306000e+0,2.00e-2,
-2.304000e+0,2.00e-2,
-2.302000e+0,2.00e-2,
-2.300000e+0,2.00e-2,
-2.298000e+0,4.00e-2,
-2.296000e+0,4.00e-2,
-2.294000e+0,4.00e-2,
-2.292000e+0,4.00e-2,
-2.290000e+0,0.00e+0,
-2.288000e+0,0.00e+0,
-2.286000e+0,4.00e-2,
-2.284000e+0,4.00e-2,
-2.282000e+0,4.00e-2,
-2.280000e+0,4.00e-2,
-2.278000e+0,4.00e-2,
-2.276000e+0,4.00e-2,
-2.274000e+0,2.00e-2,
-2.272000e+0,2.00e-2,
-2.270000e+0,2.00e-2,
-2.268000e+0,2.00e-2,
-2.266000e+0,4.00e-2,
-2.264000e+0,4.00e-2,
-2.262000e+0,2.00e-2,
-2.260000e+0,2.00e-2,
-2.258000e+0,2.00e-2,
-2.256000e+0,2.00e-2,
-2.254000e+0,4.00e-2,
-2.252000e+0,4.00e-2,
-2.250000e+0,2.00e-2,
-2.248000e+0,2.00e-2,
-2.246000e+0,4.00e-2,
-2.244000e+0,4.00e-2,
-2.242000e+0,2.00e-2,
-2.240000e+0,2.00e-2,
-2.238000e+0,2.00e-2,
-2.236000e+0,2.00e-2,
-2.234000e+0,4.00e-2,
-2.232000e+0,4.00e-2,
-2.230000e+0,4.00e-2,
-2.228000e+0,4.00e-2,
-2.226000e+0,2.00e-2,
-2.224000e+0,2.00e-2,
-2.222000e+0,2.00e-2,
-2.220000e+0,2.00e-2,
-2.218000e+0,2.00e-2,
-2.216000e+0,2.00e-2,
-2.214000e+0,2.00e-2,
-2.212000e+0,2.00e-2,
-2.210000e+0,2.00e-2,
-2.208000e+0,2.00e-2,
-2.206000e+0,2.00e-2,
-2.204000e+0,2.00e-2,
-2.202000e+0,4.00e-2,
-2.200000e+0,4.00e-2,
-2.198000e+0,2.00e-2,
-2.196000e+0,2.00e-2,
-2.194000e+0,4.00e-2,
-2.192000e+0,4.00e-2,
-2.190000e+0,4.00e-2,
-2.188000e+0,4.00e-2,
-2.186000e+0,4.00e-2,
-2.184000e+0,4.00e-2,
-2.182000e+0,2.00e-2,
-2.180000e+0,2.00e-2,
-2.178000e+0,2.00e-2,
-2.176000e+0,2.00e-2,
-2.174000e+0,4.00e-2,
-2.172000e+0,4.00e-2,
-2.170000e+0,4.00e-2,
-2.168000e+0,4.00e-2,
-2.166000e+0,4.00e-2,
-2.164000e+0,4.00e-2,
-2.162000e+0,4.00e-2,
-2.160000e+0,4.00e-2,
-2.158000e+0,2.00e-2,
-2.156000e+0,2.00e-2,
-2.154000e+0,2.00e-2,
-2.152000e+0,2.00e-2,
-2.150000e+0,4.00e-2,
-2.148000e+0,4.00e-2,
-2.146000e+0,4.00e-2,
-2.144000e+0,4.00e-2,
-2.142000e+0,4.00e-2,
-2.140000e+0,4.00e-2,
-2.138000e+0,2.00e-2,
-2.136000e+0,2.00e-2,
-2.134000e+0,4.00e-2,
-2.132000e+0,4.00e-2,
-2.130000e+0,2.00e-2,
-2.128000e+0,2.00e-2,
-2.126000e+0,2.00e-2,
-2.124000e+0,2.00e-2,
-2.122000e+0,4.00e-2,
-2.120000e+0,4.00e-2,
-2.118000e+0,4.00e-2,
-2.116000e+0,4.00e-2,
-2.114000e+0,2.00e-2,
-2.112000e+0,2.00e-2,
-2.110000e+0,4.00e-2,
-2.108000e+0,4.00e-2,
-2.106000e+0,4.00e-2,
-2.104000e+0,4.00e-2,
-2.102000e+0,2.00e-2,
-2.100000e+0,2.00e-2,
-2.098000e+0,2.00e-2,
-2.096000e+0,2.00e-2,
-2.094000e+0,4.00e-2,
-2.092000e+0,4.00e-2,
-2.090000e+0,2.00e-2,
-2.088000e+0,2.00e-2,
-2.086000e+0,4.00e-2,
-2.084000e+0,4.00e-2,
-2.082000e+0,2.00e-2,
-2.080000e+0,2.00e-2,
-2.078000e+0,4.00e-2,
-2.076000e+0,4.00e-2,
-2.074000e+0,4.00e-2,
-2.072000e+0,4.00e-2,
-2.070000e+0,2.00e-2,
-2.068000e+0,2.00e-2,
-2.066000e+0,2.00e-2,
-2.064000e+0,2.00e-2,
-2.062000e+0,2.00e-2,
-2.060000e+0,2.00e-2,
-2.058000e+0,2.00e-2,
-2.056000e+0,2.00e-2,
-2.054000e+0,4.00e-2,
-2.052000e+0,4.00e-2,
-2.050000e+0,4.00e-2,
-2.048000e+0,4.00e-2,
-2.046000e+0,0.00e+0,
-2.044000e+0,0.00e+0,
-2.042000e+0,4.00e-2,
-2.040000e+0,4.00e-2,
-2.038000e+0,2.00e-2,
-2.036000e+0,2.00e-2,
-2.034000e+0,4.00e-2,
-2.032000e+0,4.00e-2,
-2.030000e+0,4.00e-2,
-2.028000e+0,4.00e-2,
-2.026000e+0,2.00e-2,
-2.024000e+0,2.00e-2,
-2.022000e+0,2.00e-2,
-2.020000e+0,2.00e-2,
-2.018000e+0,2.00e-2,
-2.016000e+0,2.00e-2,
-2.014000e+0,4.00e-2,
-2.012000e+0,4.00e-2,
-2.010000e+0,2.00e-2,
-2.008000e+0,2.00e-2,
-2.006000e+0,4.00e-2,
-2.004000e+0,4.00e-2,
-2.002000e+0,4.00e-2,
-2.000000e+0,4.00e-2,
-1.998000e+0,4.00e-2,
-1.996000e+0,4.00e-2,
-1.994000e+0,4.00e-2,
-1.992000e+0,4.00e-2,
-1.990000e+0,4.00e-2,
-1.988000e+0,4.00e-2,
-1.986000e+0,4.00e-2,
-1.984000e+0,4.00e-2,
-1.982000e+0,4.00e-2,
-1.980000e+0,4.00e-2,
-1.978000e+0,2.00e-2,
-1.976000e+0,2.00e-2,
-1.974000e+0,2.00e-2,
-1.972000e+0,2.00e-2,
-1.970000e+0,4.00e-2,
-1.968000e+0,4.00e-2,
-1.966000e+0,4.00e-2,
-1.964000e+0,4.00e-2,
-1.962000e+0,2.00e-2,
-1.960000e+0,2.00e-2,
-1.958000e+0,2.00e-2,
-1.956000e+0,2.00e-2,
-1.954000e+0,2.00e-2,
-1.952000e+0,2.00e-2,
-1.950000e+0,2.00e-2,
-1.948000e+0,2.00e-2,
-1.946000e+0,0.00e+0,
-1.944000e+0,0.00e+0,
-1.942000e+0,4.00e-2,
-1.940000e+0,4.00e-2,
-1.938000e+0,4.00e-2,
-1.936000e+0,4.00e-2,
-1.934000e+0,2.00e-2,
-1.932000e+0,2.00e-2,
-1.930000e+0,2.00e-2,
-1.928000e+0,2.00e-2,
-1.926000e+0,0.00e+0,
-1.924000e+0,0.00e+0,
-1.922000e+0,4.00e-2,
-1.920000e+0,4.00e-2,
-1.918000e+0,4.00e-2,
-1.916000e+0,4.00e-2,
-1.914000e+0,2.00e-2,
-1.912000e+0,2.00e-2,
-1.910000e+0,2.00e-2,
-1.908000e+0,2.00e-2,
-1.906000e+0,4.00e-2,
-1.904000e+0,4.00e-2,
-1.902000e+0,2.00e-2,
-1.900000e+0,2.00e-2,
-1.898000e+0,2.00e-2,
-1.896000e+0,2.00e-2,
-1.894000e+0,4.00e-2,
-1.892000e+0,4.00e-2,
-1.890000e+0,2.00e-2,
-1.888000e+0,2.00e-2,
-1.886000e+0,2.00e-2,
-1.884000e+0,2.00e-2,
-1.882000e+0,2.00e-2,
-1.880000e+0,2.00e-2,
-1.878000e+0,2.00e-2,
-1.876000e+0,2.00e-2,
-1.874000e+0,0.00e+0,
-1.872000e+0,0.00e+0,
-1.870000e+0,0.00e+0,
-1.868000e+0,0.00e+0,
-1.866000e+0,4.00e-2,
-1.864000e+0,4.00e-2,
-1.862000e+0,2.00e-2,
-1.860000e+0,2.00e-2,
-1.858000e+0,2.00e-2,
-1.856000e+0,2.00e-2,
-1.854000e+0,2.00e-2,
-1.852000e+0,2.00e-2,
-1.850000e+0,2.00e-2,
-1.848000e+0,2.00e-2,
-1.846000e+0,2.00e-2,
-1.844000e+0,2.00e-2,
-1.842000e+0,2.00e-2,
-1.840000e+0,2.00e-2,
-1.838000e+0,4.00e-2,
-1.836000e+0,4.00e-2,
-1.834000e+0,2.00e-2,
-1.832000e+0,2.00e-2,
-1.830000e+0,2.00e-2,
-1.828000e+0,2.00e-2,
-1.826000e+0,4.00e-2,
-1.824000e+0,4.00e-2,
-1.822000e+0,0.00e+0,
-1.820000e+0,0.00e+0,
-1.818000e+0,4.00e-2,
-1.816000e+0,4.00e-2,
-1.814000e+0,4.00e-2,
-1.812000e+0,4.00e-2,
-1.810000e+0,4.00e-2,
-1.808000e+0,4.00e-2,
-1.806000e+0,4.00e-2,
-1.804000e+0,4.00e-2,
-1.802000e+0,2.00e-2,
-1.800000e+0,2.00e-2,
-1.798000e+0,2.00e-2,
-1.796000e+0,2.00e-2,
-1.794000e+0,2.00e-2,
-1.792000e+0,2.00e-2,
-1.790000e+0,2.00e-2,
-1.788000e+0,2.00e-2,
-1.786000e+0,2.00e-2,
-1.784000e+0,2.00e-2,
-1.782000e+0,2.00e-2,
-1.780000e+0,2.00e-2,
-1.778000e+0,2.00e-2,
-1.776000e+0,2.00e-2,
-1.774000e+0,0.00e+0,
-1.772000e+0,0.00e+0,
-1.770000e+0,2.00e-2,
-1.768000e+0,2.00e-2,
-1.766000e+0,4.00e-2,
-1.764000e+0,4.00e-2,
-1.762000e+0,4.00e-2,
-1.760000e+0,4.00e-2,
-1.758000e+0,0.00e+0,
-1.756000e+0,0.00e+0,
-1.754000e+0,4.00e-2,
-1.752000e+0,4.00e-2,
-1.750000e+0,2.00e-2,
-1.748000e+0,2.00e-2,
-1.746000e+0,2.00e-2,
-1.744000e+0,2.00e-2,
-1.742000e+0,4.00e-2,
-1.740000e+0,4.00e-2,
-1.738000e+0,2.00e-2,
-1.736000e+0,2.00e-2,
-1.734000e+0,2.00e-2,
-1.732000e+0,2.00e-2,
-1.730000e+0,0.00e+0,
-1.728000e+0,0.00e+0,
-1.726000e+0,2.00e-2,
-1.724000e+0,2.00e-2,
-1.722000e+0,4.00e-2,
-1.720000e+0,4.00e-2,
-1.718000e+0,2.00e-2,
-1.716000e+0,2.00e-2,
-1.714000e+0,2.00e-2,
-1.712000e+0,2.00e-2,
-1.710000e+0,4.00e-2,
-1.708000e+0,4.00e-2,
-1.706000e+0,2.00e-2,
-1.704000e+0,2.00e-2,
-1.702000e+0,2.00e-2,
-1.700000e+0,2.00e-2,
-1.698000e+0,2.00e-2,
-1.696000e+0,2.00e-2,
-1.694000e+0,2.00e-2,
-1.692000e+0,2.00e-2,
-1.690000e+0,2.00e-2,
-1.688000e+0,2.00e-2,
-1.686000e+0,2.00e-2,
-1.684000e+0,2.00e-2,
-1.682000e+0,2.00e-2,
-1.680000e+0,2.00e-2,
-1.678000e+0,2.00e-2,
-1.676000e+0,2.00e-2,
-1.674000e+0,4.00e-2,
-1.672000e+0,4.00e-2,
-1.670000e+0,2.00e-2,
-1.668000e+0,2.00e-2,
-1.666000e+0,4.00e-2,
-1.664000e+0,4.00e-2,
-1.662000e+0,2.00e-2,
-1.660000e+0,2.00e-2,
-1.658000e+0,4.00e-2,
-1.656000e+0,4.00e-2,
-1.654000e+0,2.00e-2,
-1.652000e+0,2.00e-2,
-1.650000e+0,2.00e-2,
-1.648000e+0,2.00e-2,
-1.646000e+0,4.00e-2,
-1.644000e+0,4.00e-2,
-1.642000e+0,2.00e-2,
-1.640000e+0,2.00e-2,
-1.638000e+0,2.00e-2,
-1.636000e+0,2.00e-2,
-1.634000e+0,4.00e-2,
-1.632000e+0,4.00e-2,
-1.630000e+0,2.00e-2,
-1.628000e+0,2.00e-2,
-1.626000e+0,6.00e-2,
-1.624000e+0,6.00e-2,
-1.622000e+0,2.00e-2,
-1.620000e+0,2.00e-2,
-1.618000e+0,2.00e-2,
-1.616000e+0,2.00e-2,
-1.614000e+0,2.00e-2,
-1.612000e+0,2.00e-2,
-1.610000e+0,2.00e-2,
-1.608000e+0,2.00e-2,
-1.606000e+0,4.00e-2,
-1.604000e+0,4.00e-2,
-1.602000e+0,2.00e-2,
-1.600000e+0,2.00e-2,
-1.598000e+0,2.00e-2,
-1.596000e+0,2.00e-2,
-1.594000e+0,2.00e-2,
-1.592000e+0,2.00e-2,
-1.590000e+0,2.00e-2,
-1.588000e+0,2.00e-2,
-1.586000e+0,4.00e-2,
-1.584000e+0,4.00e-2,
-1.582000e+0,0.00e+0,
-1.580000e+0,0.00e+0,
-1.578000e+0,2.00e-2,
-1.576000e+0,2.00e-2,
-1.574000e+0,2.00e-2,
-1.572000e+0,2.00e-2,
-1.570000e+0,4.00e-2,
-1.568000e+0,4.00e-2,
-1.566000e+0,2.00e-2,
-1.564000e+0,2.00e-2,
-1.562000e+0,2.00e-2,
-1.560000e+0,2.00e-2,
-1.558000e+0,4.00e-2,
-1.556000e+0,4.00e-2,
-1.554000e+0,4.00e-2,
-1.552000e+0,4.00e-2,
-1.550000e+0,2.00e-2,
-1.548000e+0,2.00e-2,
-1.546000e+0,4.00e-2,
-1.544000e+0,4.00e-2,
-1.542000e+0,4.00e-2,
-1.540000e+0,4.00e-2,
-1.538000e+0,0.00e+0,
-1.536000e+0,0.00e+0,
-1.534000e+0,2.00e-2,
-1.532000e+0,2.00e-2,
-1.530000e+0,4.00e-2,
-1.528000e+0,4.00e-2,
-1.526000e+0,2.00e-2,
-1.524000e+0,2.00e-2,
-1.522000e+0,2.00e-2,
-1.520000e+0,2.00e-2,
-1.518000e+0,2.00e-2,
-1.516000e+0,2.00e-2,
-1.514000e+0,2.00e-2,
-1.512000e+0,2.00e-2,
-1.510000e+0,4.00e-2,
-1.508000e+0,4.00e-2,
-1.506000e+0,2.00e-2,
-1.504000e+0,2.00e-2,
-1.502000e+0,4.00e-2,
-1.500000e+0,4.00e-2,
-1.498000e+0,2.00e-2,
-1.496000e+0,2.00e-2,
-1.494000e+0,4.00e-2,
-1.492000e+0,4.00e-2,
-1.490000e+0,4.00e-2,
-1.488000e+0,4.00e-2,
-1.486000e+0,2.00e-2,
-1.484000e+0,2.00e-2,
-1.482000e+0,4.00e-2,
-1.480000e+0,4.00e-2,
-1.478000e+0,2.00e-2,
-1.476000e+0,2.00e-2,
-1.474000e+0,2.00e-2,
-1.472000e+0,2.00e-2,
-1.470000e+0,2.00e-2,
-1.468000e+0,2.00e-2,
-1.466000e+0,4.00e-2,
-1.464000e+0,4.00e-2,
-1.462000e+0,4.00e-2,
-1.460000e+0,4.00e-2,
-1.458000e+0,2.00e-2,
-1.456000e+0,2.00e-2,
-1.454000e+0,4.00e-2,
-1.452000e+0,4.00e-2,
-1.450000e+0,2.00e-2,
-1.448000e+0,2.00e-2,
-1.446000e+0,2.00e-2,
-1.444000e+0,2.00e-2,
-1.442000e+0,2.00e-2,
-1.440000e+0,2.00e-2,
-1.438000e+0,2.00e-2,
-1.436000e+0,2.00e-2,
-1.434000e+0,4.00e-2,
-1.432000e+0,4.00e-2,
-1.430000e+0,4.00e-2,
-1.428000e+0,4.00e-2,
-1.426000e+0,4.00e-2,
-1.424000e+0,4.00e-2,
-1.422000e+0,4.00e-2,
-1.420000e+0,4.00e-2,
-1.418000e+0,4.00e-2,
-1.416000e+0,4.00e-2,
-1.414000e+0,4.00e-2,
-1.412000e+0,4.00e-2,
-1.410000e+0,4.00e-2,
-1.408000e+0,4.00e-2,
-1.406000e+0,4.00e-2,
-1.404000e+0,4.00e-2,
-1.402000e+0,4.00e-2,
-1.400000e+0,4.00e-2,
-1.398000e+0,4.00e-2,
-1.396000e+0,4.00e-2,
-1.394000e+0,4.00e-2,
-1.392000e+0,4.00e-2,
-1.390000e+0,8.00e-2,
-1.388000e+0,8.00e-2,
-1.386000e+0,6.00e-2,
-1.384000e+0,6.00e-2,
-1.382000e+0,1.00e-1,
-1.380000e+0,1.00e-1,
-1.378000e+0,1.60e-1,
-1.376000e+0,1.60e-1,
-1.374000e+0,3.60e-1,
-1.372000e+0,3.60e-1,
-1.370000e+0,5.00e-1,
-1.368000e+0,8.20e-1,
-1.366000e+0,6.40e-1,
-1.364000e+0,9.80e-1,
-1.362000e+0,9.00e-1,
-1.360000e+0,1.48e+0,
-1.358000e+0,1.40e+0,
-1.356000e+0,1.88e+0,
-1.354000e+0,1.76e+0,
-1.352000e+0,1.76e+0,
-1.350000e+0,1.84e+0,
-1.348000e+0,1.84e+0,
-1.346000e+0,1.72e+0,
-1.344000e+0,1.96e+0,
-1.342000e+0,1.80e+0,
-1.340000e+0,2.28e+0,
-1.338000e+0,2.12e+0,
-1.336000e+0,2.36e+0,
-1.334000e+0,2.30e+0,
-1.332000e+0,2.08e+0,
-1.330000e+0,2.12e+0,
-1.328000e+0,1.88e+0,
-1.326000e+0,1.94e+0,
-1.324000e+0,1.54e+0,
-1.322000e+0,1.56e+0,
-1.320000e+0,1.56e+0,
-1.318000e+0,1.48e+0,
-1.316000e+0,1.48e+0,
-1.314000e+0,1.46e+0,
-1.312000e+0,1.46e+0,
-1.310000e+0,1.34e+0,
-1.308000e+0,1.34e+0,
-1.306000e+0,1.22e+0,
-1.304000e+0,1.22e+0,
-1.302000e+0,1.06e+0,
-1.300000e+0,1.06e+0,
-1.298000e+0,1.04e+0,
-1.296000e+0,1.04e+0,
-1.294000e+0,1.00e+0,
-1.292000e+0,1.00e+0,
-1.290000e+0,9.60e-1,
-1.288000e+0,9.60e-1,
-1.286000e+0,9.20e-1,
-1.284000e+0,9.20e-1,
-1.282000e+0,8.40e-1,
-1.280000e+0,8.40e-1,
-1.278000e+0,8.60e-1,
-1.276000e+0,8.60e-1,
-1.274000e+0,7.60e-1,
-1.272000e+0,7.60e-1,
-1.270000e+0,7.00e-1,
-1.268000e+0,7.00e-1,
-1.266000e+0,6.80e-1,
-1.264000e+0,6.80e-1,
-1.262000e+0,6.00e-1,
-1.260000e+0,6.00e-1,
-1.258000e+0,6.00e-1,
-1.256000e+0,6.00e-1,
-1.254000e+0,5.20e-1,
-1.252000e+0,5.20e-1,
-1.250000e+0,4.80e-1,
-1.248000e+0,4.80e-1,
-1.246000e+0,4.40e-1,
-1.244000e+0,4.40e-1,
-1.242000e+0,4.40e-1,
-1.240000e+0,4.40e-1,
-1.238000e+0,4.20e-1,
-1.236000e+0,4.20e-1,
-1.234000e+0,4.20e-1,
-1.232000e+0,4.20e-1,
-1.230000e+0,4.00e-1,
-1.228000e+0,4.00e-1,
-1.226000e+0,3.60e-1,
-1.224000e+0,3.60e-1,
-1.222000e+0,3.60e-1,
-1.220000e+0,3.60e-1,
-1.218000e+0,3.60e-1,
-1.216000e+0,3.60e-1,
-1.214000e+0,3.20e-1,
-1.212000e+0,3.20e-1,
-1.210000e+0,3.20e-1,
-1.208000e+0,3.20e-1,
-1.206000e+0,3.00e-1,
-1.204000e+0,3.00e-1,
-1.202000e+0,3.20e-1,
-1.200000e+0,3.20e-1,
-1.198000e+0,3.20e-1,
-1.196000e+0,3.20e-1,
-1.194000e+0,3.40e-1,
-1.192000e+0,3.40e-1,
-1.190000e+0,3.40e-1,
-1.188000e+0,3.40e-1,
-1.186000e+0,3.40e-1,
-1.184000e+0,3.40e-1,
-1.182000e+0,3.40e-1,
-1.180000e+0,3.40e-1,
-1.178000e+0,3.40e-1,
-1.176000e+0,3.40e-1,
-1.174000e+0,3.60e-1,
-1.172000e+0,3.60e-1,
-1.170000e+0,3.60e-1,
-1.168000e+0,3.60e-1,
-1.166000e+0,3.80e-1,
-1.164000e+0,3.80e-1,
-1.162000e+0,4.00e-1,
-1.160000e+0,4.00e-1,
-1.158000e+0,3.80e-1,
-1.156000e+0,3.80e-1,
-1.154000e+0,4.20e-1,
-1.152000e+0,4.20e-1,
-1.150000e+0,4.20e-1,
-1.148000e+0,4.20e-1,
-1.146000e+0,4.40e-1,
-1.144000e+0,4.40e-1,
-1.142000e+0,4.40e-1,
-1.140000e+0,4.40e-1,
-1.138000e+0,4.40e-1,
-1.136000e+0,4.40e-1,
-1.134000e+0,5.00e-1,
-1.132000e+0,5.00e-1,
-1.130000e+0,5.20e-1,
-1.128000e+0,5.20e-1,
-1.126000e+0,5.40e-1,
-1.124000e+0,5.40e-1,
-1.122000e+0,5.80e-1,
-1.120000e+0,5.80e-1,
-1.118000e+0,6.00e-1,
-1.116000e+0,6.00e-1,
-1.114000e+0,6.40e-1,
-1.112000e+0,6.40e-1,
-1.110000e+0,6.80e-1,
-1.108000e+0,6.80e-1,
-1.106000e+0,6.80e-1,
-1.104000e+0,6.80e-1,
-1.102000e+0,7.60e-1,
-1.100000e+0,7.60e-1,
-1.098000e+0,8.00e-1,
-1.096000e+0,8.00e-1,
-1.094000e+0,8.40e-1,
-1.092000e+0,8.40e-1,
-1.090000e+0,8.60e-1,
-1.088000e+0,8.60e-1,
-1.086000e+0,9.00e-1,
-1.084000e+0,9.00e-1,
-1.082000e+0,9.40e-1,
-1.080000e+0,9.40e-1,
-1.078000e+0,9.80e-1,
-1.076000e+0,9.80e-1,
-1.074000e+0,9.80e-1,
-1.072000e+0,9.80e-1,
-1.070000e+0,9.80e-1,
-1.068000e+0,9.80e-1,
-1.066000e+0,1.04e+0,
-1.064000e+0,1.04e+0,
-1.062000e+0,1.06e+0,
-1.060000e+0,1.06e+0,
-1.058000e+0,1.12e+0,
-1.056000e+0,1.12e+0,
-1.054000e+0,1.20e+0,
-1.052000e+0,1.20e+0,
-1.050000e+0,1.32e+0,
-1.048000e+0,1.32e+0,
-1.046000e+0,1.48e+0,
-1.044000e+0,1.48e+0,
-1.042000e+0,1.48e+0,
-1.040000e+0,1.48e+0,
-1.038000e+0,1.48e+0,
-1.036000e+0,1.48e+0,
-1.034000e+0,1.56e+0,
-1.032000e+0,1.94e+0,
-1.030000e+0,1.88e+0,
-1.028000e+0,1.88e+0,
-1.026000e+0,2.06e+0,
-1.024000e+0,2.06e+0,
-1.022000e+0,2.12e+0,
-1.020000e+0,2.34e+0,
-1.018000e+0,2.32e+0,
-1.016000e+0,2.32e+0,
-1.014000e+0,2.24e+0,
-1.012000e+0,1.94e+0,
-1.010000e+0,1.96e+0,
-1.008000e+0,1.74e+0,
-1.006000e+0,1.76e+0,
-1.004000e+0,1.76e+0,
-1.002000e+0,1.72e+0,
-1.000000e+0,1.72e+0,
-9.980000e-1,1.76e+0,
-9.960000e-1,1.76e+0,
-9.940000e-1,1.88e+0,
-9.920000e-1,1.38e+0,
-9.900000e-1,1.56e+0,
-9.880000e-1,1.16e+0,
-9.860000e-1,1.38e+0,
-9.840000e-1,8.60e-1,
-9.820000e-1,9.60e-1,
-9.800000e-1,6.00e-1,
-9.780000e-1,8.20e-1,
-9.760000e-1,5.00e-1,
-9.740000e-1,5.80e-1,
-9.720000e-1,5.80e-1,
-9.700000e-1,4.00e-1,
-9.680000e-1,1.80e-1,
-9.660000e-1,2.20e-1,
-9.640000e-1,2.20e-1,
-9.620000e-1,1.40e-1,
-9.600000e-1,1.40e-1,
-9.580000e-1,1.20e-1,
-9.560000e-1,1.20e-1,
-9.540000e-1,8.00e-2,
-9.520000e-1,8.00e-2,
-9.500000e-1,4.00e-2,
-9.480000e-1,4.00e-2,
-9.460000e-1,6.00e-2,
-9.440000e-1,6.00e-2,
-9.420000e-1,4.00e-2,
-9.400000e-1,4.00e-2,
-9.380000e-1,6.00e-2,
-9.360000e-1,6.00e-2,
-9.340000e-1,4.00e-2,
-9.320000e-1,4.00e-2,
-9.300000e-1,4.00e-2,
-9.280000e-1,4.00e-2,
-9.260000e-1,4.00e-2,
-9.240000e-1,4.00e-2,
-9.220000e-1,4.00e-2,
-9.200000e-1,4.00e-2,
-9.180000e-1,4.00e-2,
-9.160000e-1,4.00e-2,
-9.140000e-1,4.00e-2,
-9.120000e-1,4.00e-2,
-9.100000e-1,4.00e-2,
-9.080000e-1,4.00e-2,
-9.060000e-1,4.00e-2,
-9.040000e-1,4.00e-2,
-9.020000e-1,2.00e-2,
-9.000000e-1,2.00e-2,
-8.980000e-1,2.00e-2,
-8.960000e-1,2.00e-2,
-8.940000e-1,4.00e-2,
-8.920000e-1,4.00e-2,
-8.900000e-1,4.00e-2,
-8.880000e-1,4.00e-2,
-8.860000e-1,4.00e-2,
-8.840000e-1,4.00e-2,
-8.820000e-1,4.00e-2,
-8.800000e-1,4.00e-2,
-8.780000e-1,4.00e-2,
-8.760000e-1,4.00e-2,
-8.740000e-1,4.00e-2,
-8.720000e-1,4.00e-2,
-8.700000e-1,4.00e-2,
-8.680000e-1,4.00e-2,
-8.660000e-1,4.00e-2,
-8.640000e-1,4.00e-2,
-8.620000e-1,4.00e-2,
-8.600000e-1,4.00e-2,
-8.580000e-1,2.00e-2,
-8.560000e-1,2.00e-2,
-8.540000e-1,4.00e-2,
-8.520000e-1,4.00e-2,
-8.500000e-1,4.00e-2,
-8.480000e-1,4.00e-2,
-8.460000e-1,2.00e-2,
-8.440000e-1,2.00e-2,
-8.420000e-1,4.00e-2,
-8.400000e-1,4.00e-2,
-8.380000e-1,2.00e-2,
-8.360000e-1,2.00e-2,
-8.340000e-1,2.00e-2,
-8.320000e-1,2.00e-2,
-8.300000e-1,2.00e-2,
-8.280000e-1,2.00e-2,
-8.260000e-1,4.00e-2,
-8.240000e-1,4.00e-2,
-8.220000e-1,2.00e-2,
-8.200000e-1,2.00e-2,
-8.180000e-1,2.00e-2,
-8.160000e-1,2.00e-2,
-8.140000e-1,2.00e-2,
-8.120000e-1,2.00e-2,
-8.100000e-1,2.00e-2,
-8.080000e-1,2.00e-2,
-8.060000e-1,2.00e-2,
-8.040000e-1,2.00e-2,
-8.020000e-1,2.00e-2,
-8.000000e-1,2.00e-2,
-7.980000e-1,4.00e-2,
-7.960000e-1,4.00e-2,
-7.940000e-1,2.00e-2,
-7.920000e-1,2.00e-2,
-7.900000e-1,2.00e-2,
-7.880000e-1,2.00e-2,
-7.860000e-1,2.00e-2,
-7.840000e-1,2.00e-2,
-7.820000e-1,4.00e-2,
-7.800000e-1,4.00e-2,
-7.780000e-1,2.00e-2,
-7.760000e-1,2.00e-2,
-7.740000e-1,2.00e-2,
-7.720000e-1,2.00e-2,
-7.700000e-1,4.00e-2,
-7.680000e-1,4.00e-2,
-7.660000e-1,2.00e-2,
-7.640000e-1,2.00e-2,
-7.620000e-1,2.00e-2,
-7.600000e-1,2.00e-2,
-7.580000e-1,4.00e-2,
-7.560000e-1,4.00e-2,
-7.540000e-1,2.00e-2,
-7.520000e-1,2.00e-2,
-7.500000e-1,2.00e-2,
-7.480000e-1,2.00e-2,
-7.460000e-1,2.00e-2,
-7.440000e-1,2.00e-2,
-7.420000e-1,2.00e-2,
-7.400000e-1,2.00e-2,
-7.380000e-1,2.00e-2,
-7.360000e-1,2.00e-2,
-7.340000e-1,0.00e+0,
-7.320000e-1,0.00e+0,
-7.300000e-1,4.00e-2,
-7.280000e-1,4.00e-2,
-7.260000e-1,2.00e-2,
-7.240000e-1,2.00e-2,
-7.220000e-1,2.00e-2,
-7.200000e-1,2.00e-2,
-7.180000e-1,2.00e-2,
-7.160000e-1,2.00e-2,
-7.140000e-1,4.00e-2,
-7.120000e-1,4.00e-2,
-7.100000e-1,0.00e+0,
-7.080000e-1,0.00e+0,
-7.060000e-1,2.00e-2,
-7.040000e-1,2.00e-2,
-7.020000e-1,2.00e-2,
-7.000000e-1,2.00e-2,
-6.980000e-1,2.00e-2,
-6.960000e-1,2.00e-2,
-6.940000e-1,4.00e-2,
-6.920000e-1,4.00e-2,
-6.900000e-1,4.00e-2,
-6.880000e-1,4.00e-2,
-6.860000e-1,2.00e-2,
-6.840000e-1,2.00e-2,
-6.820000e-1,4.00e-2,
-6.800000e-1,4.00e-2,
-6.780000e-1,4.00e-2,
-6.760000e-1,4.00e-2,
-6.740000e-1,2.00e-2,
-6.720000e-1,2.00e-2,
-6.700000e-1,2.00e-2,
-6.680000e-1,2.00e-2,
-6.660000e-1,2.00e-2,
-6.640000e-1,2.00e-2,
-6.620000e-1,4.00e-2,
-6.600000e-1,4.00e-2,
-6.580000e-1,2.00e-2,
-6.560000e-1,2.00e-2,
-6.540000e-1,4.00e-2,
-6.520000e-1,4.00e-2,
-6.500000e-1,0.00e+0,
-6.480000e-1,0.00e+0,
-6.460000e-1,4.00e-2,
-6.440000e-1,4.00e-2,
-6.420000e-1,2.00e-2,
-6.400000e-1,2.00e-2,
-6.380000e-1,2.00e-2,
-6.360000e-1,2.00e-2,
-6.340000e-1,2.00e-2,
-6.320000e-1,2.00e-2,
-6.300000e-1,4.00e-2,
-6.280000e-1,4.00e-2,
-6.260000e-1,2.00e-2,
-6.240000e-1,2.00e-2,
-6.220000e-1,2.00e-2,
-6.200000e-1,2.00e-2,
-6.180000e-1,2.00e-2,
-6.160000e-1,2.00e-2,
-6.140000e-1,2.00e-2,
-6.120000e-1,2.00e-2,
-6.100000e-1,2.00e-2,
-6.080000e-1,2.00e-2,
-6.060000e-1,2.00e-2,
-6.040000e-1,2.00e-2,
-6.020000e-1,4.00e-2,
-6.000000e-1,4.00e-2,
-5.980000e-1,2.00e-2,
-5.960000e-1,2.00e-2,
-5.940000e-1,2.00e-2,
-5.920000e-1,2.00e-2,
-5.900000e-1,2.00e-2,
-5.880000e-1,2.00e-2,
-5.860000e-1,2.00e-2,
-5.840000e-1,2.00e-2,
-5.820000e-1,2.00e-2,
-5.800000e-1,2.00e-2,
-5.780000e-1,2.00e-2,
-5.760000e-1,2.00e-2,
-5.740000e-1,4.00e-2,
-5.720000e-1,4.00e-2,
-5.700000e-1,2.00e-2,
-5.680000e-1,2.00e-2,
-5.660000e-1,0.00e+0,
-5.640000e-1,0.00e+0,
-5.620000e-1,2.00e-2,
-5.600000e-1,2.00e-2,
-5.580000e-1,2.00e-2,
-5.560000e-1,2.00e-2,
-5.540000e-1,4.00e-2,
-5.520000e-1,4.00e-2,
-5.500000e-1,2.00e-2,
-5.480000e-1,2.00e-2,
-5.460000e-1,4.00e-2,
-5.440000e-1,4.00e-2,
-5.420000e-1,2.00e-2,
-5.400000e-1,2.00e-2,
-5.380000e-1,2.00e-2,
-5.360000e-1,2.00e-2,
-5.340000e-1,4.00e-2,
-5.320000e-1,4.00e-2,
-5.300000e-1,2.00e-2,
-5.280000e-1,2.00e-2,
-5.260000e-1,2.00e-2,
-5.240000e-1,2.00e-2,
-5.220000e-1,4.00e-2,
-5.200000e-1,4.00e-2,
-5.180000e-1,2.00e-2,
-5.160000e-1,2.00e-2,
-5.140000e-1,0.00e+0,
-5.120000e-1,0.00e+0,
-5.100000e-1,4.00e-2,
-5.080000e-1,4.00e-2,
-5.060000e-1,4.00e-2,
-5.040000e-1,4.00e-2,
-5.020000e-1,4.00e-2,
-5.000000e-1,4.00e-2,
-4.980000e-1,4.00e-2,
-4.960000e-1,4.00e-2,
-4.940000e-1,2.00e-2,
-4.920000e-1,2.00e-2,
-4.900000e-1,0.00e+0,
-4.880000e-1,0.00e+0,
-4.860000e-1,2.00e-2,
-4.840000e-1,2.00e-2,
-4.820000e-1,0.00e+0,
-4.800000e-1,0.00e+0,
-4.780000e-1,2.00e-2,
-4.760000e-1,2.00e-2,
-4.740000e-1,2.00e-2,
-4.720000e-1,2.00e-2,
-4.700000e-1,2.00e-2,
-4.680000e-1,2.00e-2,
-4.660000e-1,4.00e-2,
-4.640000e-1,4.00e-2,
-4.620000e-1,0.00e+0,
-4.600000e-1,0.00e+0,
-4.580000e-1,2.00e-2,
-4.560000e-1,2.00e-2,
-4.540000e-1,2.00e-2,
-4.520000e-1,2.00e-2,
-4.500000e-1,2.00e-2,
-4.480000e-1,2.00e-2,
-4.460000e-1,2.00e-2,
-4.440000e-1,2.00e-2,
-4.420000e-1,2.00e-2,
-4.400000e-1,2.00e-2,
-4.380000e-1,4.00e-2,
-4.360000e-1,4.00e-2,
-4.340000e-1,2.00e-2,
-4.320000e-1,2.00e-2,
-4.300000e-1,2.00e-2,
-4.280000e-1,2.00e-2,
-4.260000e-1,2.00e-2,
-4.240000e-1,2.00e-2,
-4.220000e-1,2.00e-2,
-4.200000e-1,2.00e-2,
-4.180000e-1,2.00e-2,
-4.160000e-1,2.00e-2,
-4.140000e-1,4.00e-2,
-4.120000e-1,4.00e-2,
-4.100000e-1,4.00e-2,
-4.080000e-1,4.00e-2,
-4.060000e-1,2.00e-2,
-4.040000e-1,2.00e-2,
-4.020000e-1,4.00e-2,
-4.000000e-1,4.00e-2,
-3.980000e-1,2.00e-2,
-3.960000e-1,2.00e-2,
-3.940000e-1,2.00e-2,
-3.920000e-1,2.00e-2,
-3.900000e-1,2.00e-2,
-3.880000e-1,2.00e-2,
-3.860000e-1,4.00e-2,
-3.840000e-1,4.00e-2,
-3.820000e-1,2.00e-2,
-3.800000e-1,2.00e-2,
-3.780000e-1,4.00e-2,
-3.760000e-1,4.00e-2,
-3.740000e-1,2.00e-2,
-3.720000e-1,2.00e-2,
-3.700000e-1,4.00e-2,
-3.680000e-1,4.00e-2,
-3.660000e-1,2.00e-2,
-3.640000e-1,2.00e-2,
-3.620000e-1,4.00e-2,
-3.600000e-1,4.00e-2,
-3.580000e-1,2.00e-2,
-3.560000e-1,2.00e-2,
-3.540000e-1,4.00e-2,
-3.520000e-1,4.00e-2,
-3.500000e-1,4.00e-2,
-3.480000e-1,4.00e-2,
-3.460000e-1,2.00e-2,
-3.440000e-1,2.00e-2,
-3.420000e-1,2.00e-2,
-3.400000e-1,2.00e-2,
-3.380000e-1,2.00e-2,
-3.360000e-1,2.00e-2,
-3.340000e-1,2.00e-2,
-3.320000e-1,2.00e-2,
-3.300000e-1,2.00e-2,
-3.280000e-1,2.00e-2,
-3.260000e-1,2.00e-2,
-3.240000e-1,2.00e-2,
-3.220000e-1,4.00e-2,
-3.200000e-1,4.00e-2,
-3.180000e-1,2.00e-2,
-3.160000e-1,2.00e-2,
-3.140000e-1,2.00e-2,
-3.120000e-1,2.00e-2,
-3.100000e-1,4.00e-2,
-3.080000e-1,4.00e-2,
-3.060000e-1,2.00e-2,
-3.040000e-1,2.00e-2,
-3.020000e-1,4.00e-2,
-3.000000e-1,4.00e-2,
-2.980000e-1,2.00e-2,
-2.960000e-1,2.00e-2,
-2.940000e-1,2.00e-2,
-2.920000e-1,2.00e-2,
-2.900000e-1,4.00e-2,
-2.880000e-1,4.00e-2,
-2.860000e-1,2.00e-2,
-2.840000e-1,2.00e-2,
-2.820000e-1,2.00e-2,
-2.800000e-1,2.00e-2,
-2.780000e-1,4.00e-2,
-2.760000e-1,4.00e-2,
-2.740000e-1,2.00e-2,
-2.720000e-1,2.00e-2,
-2.700000e-1,4.00e-2,
-2.680000e-1,4.00e-2,
-2.660000e-1,2.00e-2,
-2.640000e-1,2.00e-2,
-2.620000e-1,2.00e-2,
-2.600000e-1,2.00e-2,
-2.580000e-1,4.00e-2,
-2.560000e-1,4.00e-2,
-2.540000e-1,2.00e-2,
-2.520000e-1,2.00e-2,
-2.500000e-1,2.00e-2,
-2.480000e-1,2.00e-2,
-2.460000e-1,4.00e-2,
-2.440000e-1,4.00e-2,
-2.420000e-1,2.00e-2,
-2.400000e-1,2.00e-2,
-2.380000e-1,4.00e-2,
-2.360000e-1,4.00e-2,
-2.340000e-1,0.00e+0,
-2.320000e-1,0.00e+0,
-2.300000e-1,2.00e-2,
-2.280000e-1,2.00e-2,
-2.260000e-1,2.00e-2,
-2.240000e-1,2.00e-2,
-2.220000e-1,4.00e-2,
-2.200000e-1,4.00e-2,
-2.180000e-1,2.00e-2,
-2.160000e-1,2.00e-2,
-2.140000e-1,4.00e-2,
-2.120000e-1,4.00e-2,
-2.100000e-1,0.00e+0,
-2.080000e-1,0.00e+0,
-2.060000e-1,2.00e-2,
-2.040000e-1,2.00e-2,
-2.020000e-1,4.00e-2,
-2.000000e-1,4.00e-2,
-1.980000e-1,2.00e-2,
-1.960000e-1,2.00e-2,
-1.940000e-1,2.00e-2,
-1.920000e-1,2.00e-2,
-1.900000e-1,4.00e-2,
-1.880000e-1,4.00e-2,
-1.860000e-1,2.00e-2,
-1.840000e-1,2.00e-2,
-1.820000e-1,2.00e-2,
-1.800000e-1,2.00e-2,
-1.780000e-1,4.00e-2,
-1.760000e-1,4.00e-2,
-1.740000e-1,2.00e-2,
-1.720000e-1,2.00e-2,
-1.700000e-1,2.00e-2,
-1.680000e-1,2.00e-2,
-1.660000e-1,4.00e-2,
-1.640000e-1,4.00e-2,
-1.620000e-1,2.00e-2,
-1.600000e-1,2.00e-2,
-1.580000e-1,2.00e-2,
-1.560000e-1,2.00e-2,
-1.540000e-1,4.00e-2,
-1.520000e-1,4.00e-2,
-1.500000e-1,2.00e-2,
-1.480000e-1,2.00e-2,
-1.460000e-1,2.00e-2,
-1.440000e-1,2.00e-2,
-1.420000e-1,4.00e-2,
-1.400000e-1,4.00e-2,
-1.380000e-1,2.00e-2,
-1.360000e-1,2.00e-2,
-1.340000e-1,2.00e-2,
-1.320000e-1,2.00e-2,
-1.300000e-1,4.00e-2,
-1.280000e-1,4.00e-2,
-1.260000e-1,4.00e-2,
-1.240000e-1,4.00e-2,
-1.220000e-1,4.00e-2,
-1.200000e-1,4.00e-2,
-1.180000e-1,0.00e+0,
-1.160000e-1,0.00e+0,
-1.140000e-1,4.00e-2,
-1.120000e-1,4.00e-2,
-1.100000e-1,4.00e-2,
-1.080000e-1,4.00e-2,
-1.060000e-1,2.00e-2,
-1.040000e-1,2.00e-2,
-1.020000e-1,4.00e-2,
-1.000000e-1,4.00e-2,
-9.800000e-2,2.00e-2,
-9.600000e-2,2.00e-2,
-9.400000e-2,2.00e-2,
-9.200000e-2,2.00e-2,
-9.000000e-2,2.00e-2,
-8.800000e-2,2.00e-2,
-8.600000e-2,2.00e-2,
-8.400000e-2,2.00e-2,
-8.200000e-2,4.00e-2,
-8.000000e-2,4.00e-2,
-7.800000e-2,2.00e-2,
-7.600000e-2,2.00e-2,
-7.400000e-2,0.00e+0,
-7.200000e-2,0.00e+0,
-7.000000e-2,4.00e-2,
-6.800000e-2,4.00e-2,
-6.600000e-2,4.00e-2,
-6.400000e-2,4.00e-2,
-6.200000e-2,4.00e-2,
-6.000000e-2,4.00e-2,
-5.800000e-2,4.00e-2,
-5.600000e-2,4.00e-2,
-5.400000e-2,4.00e-2,
-5.200000e-2,4.00e-2,
-5.000000e-2,4.00e-2,
-4.800000e-2,4.00e-2,
-4.600000e-2,2.00e-2,
-4.400000e-2,2.00e-2,
-4.200000e-2,4.00e-2,
-4.000000e-2,4.00e-2,
-3.800000e-2,2.00e-2,
-3.600000e-2,2.00e-2,
-3.400000e-2,2.00e-2,
-3.200000e-2,2.00e-2,
-3.000000e-2,4.00e-2,
-2.800000e-2,4.00e-2,
-2.600000e-2,4.00e-2,
-2.400000e-2,4.00e-2,
-2.200000e-2,2.00e-2,
-2.000000e-2,2.00e-2,
-1.800000e-2,2.00e-2,
-1.600000e-2,2.00e-2,
-1.400000e-2,4.00e-2,
-1.200000e-2,4.00e-2,
-1.000000e-2,4.00e-2,
-8.000000e-3,4.00e-2,
-6.000000e-3,4.00e-2,
-4.000000e-3,4.00e-2,
-2.000000e-3,4.00e-2,
-7.728540e-14,4.00e-2,
2.000000e-3,4.00e-2,
4.000000e-3,4.00e-2,
6.000000e-3,2.00e-2,
8.000000e-3,2.00e-2,
1.000000e-2,2.00e-2,
1.200000e-2,2.00e-2,
1.400000e-2,2.00e-2,
1.600000e-2,2.00e-2,
1.800000e-2,4.00e-2,
2.000000e-2,4.00e-2,
2.200000e-2,2.00e-2,
2.400000e-2,2.00e-2,
2.600000e-2,0.00e+0,
2.800000e-2,0.00e+0,
3.000000e-2,4.00e-2,
3.200000e-2,4.00e-2,
3.400000e-2,4.00e-2,
3.600000e-2,4.00e-2,
3.800000e-2,4.00e-2,
4.000000e-2,4.00e-2,
4.200000e-2,2.00e-2,
4.400000e-2,2.00e-2,
4.600000e-2,2.00e-2,
4.800000e-2,2.00e-2,
5.000000e-2,4.00e-2,
5.200000e-2,4.00e-2,
5.400000e-2,2.00e-2,
5.600000e-2,2.00e-2,
5.800000e-2,4.00e-2,
6.000000e-2,4.00e-2,
6.200000e-2,4.00e-2,
6.400000e-2,4.00e-2,
6.600000e-2,2.00e-2,
6.800000e-2,2.00e-2,
7.000000e-2,4.00e-2,
7.200000e-2,4.00e-2,
7.400000e-2,4.00e-2,
7.600000e-2,4.00e-2,
7.800000e-2,4.00e-2,
8.000000e-2,4.00e-2,
8.200000e-2,2.00e-2,
8.400000e-2,2.00e-2,
8.600000e-2,4.00e-2,
8.800000e-2,4.00e-2,
9.000000e-2,4.00e-2,
9.200000e-2,4.00e-2,
9.400000e-2,2.00e-2,
9.600000e-2,2.00e-2,
9.800000e-2,4.00e-2,
1.000000e-1,4.00e-2,
1.020000e-1,4.00e-2,
1.040000e-1,4.00e-2,
1.060000e-1,4.00e-2,
1.080000e-1,4.00e-2,
1.100000e-1,4.00e-2,
1.120000e-1,4.00e-2,
1.140000e-1,2.00e-2,
1.160000e-1,2.00e-2,
1.180000e-1,4.00e-2,
1.200000e-1,4.00e-2,
1.220000e-1,4.00e-2,
1.240000e-1,4.00e-2,
1.260000e-1,4.00e-2,
1.280000e-1,4.00e-2,
1.300000e-1,4.00e-2,
1.320000e-1,4.00e-2,
1.340000e-1,2.00e-2,
1.360000e-1,2.00e-2,
1.380000e-1,4.00e-2,
1.400000e-1,4.00e-2,
1.420000e-1,4.00e-2,
1.440000e-1,4.00e-2,
1.460000e-1,4.00e-2,
1.480000e-1,4.00e-2,
1.500000e-1,2.00e-2,
1.520000e-1,2.00e-2,
1.540000e-1,2.00e-2,
1.560000e-1,2.00e-2,
1.580000e-1,4.00e-2,
1.600000e-1,4.00e-2,
1.620000e-1,6.00e-2,
1.640000e-1,6.00e-2,
1.660000e-1,4.00e-2,
1.680000e-1,4.00e-2,
1.700000e-1,2.00e-2,
1.720000e-1,2.00e-2,
1.740000e-1,4.00e-2,
1.760000e-1,4.00e-2,
1.780000e-1,4.00e-2,
1.800000e-1,4.00e-2,
1.820000e-1,4.00e-2,
1.840000e-1,4.00e-2,
1.860000e-1,4.00e-2,
1.880000e-1,4.00e-2,
1.900000e-1,2.00e-2,
1.920000e-1,2.00e-2,
1.940000e-1,4.00e-2,
1.960000e-1,4.00e-2,
1.980000e-1,2.00e-2,
2.000000e-1,2.00e-2,
2.020000e-1,4.00e-2,
2.040000e-1,4.00e-2,
2.060000e-1,4.00e-2,
2.080000e-1,4.00e-2,
2.100000e-1,4.00e-2,
2.120000e-1,4.00e-2,
2.140000e-1,4.00e-2,
2.160000e-1,4.00e-2,
2.180000e-1,4.00e-2,
2.200000e-1,4.00e-2,
2.220000e-1,4.00e-2,
2.240000e-1,4.00e-2,
2.260000e-1,2.00e-2,
2.280000e-1,2.00e-2,
2.300000e-1,4.00e-2,
2.320000e-1,4.00e-2,
2.340000e-1,4.00e-2,
2.360000e-1,4.00e-2,
2.380000e-1,4.00e-2,
2.400000e-1,4.00e-2,
2.420000e-1,4.00e-2,
2.440000e-1,4.00e-2,
2.460000e-1,4.00e-2,
2.480000e-1,4.00e-2,
2.500000e-1,4.00e-2,
2.520000e-1,4.00e-2,
2.540000e-1,4.00e-2,
2.560000e-1,4.00e-2,
2.580000e-1,4.00e-2,
2.600000e-1,4.00e-2,
2.620000e-1,6.00e-2,
2.640000e-1,6.00e-2,
2.660000e-1,4.00e-2,
2.680000e-1,4.00e-2,
2.700000e-1,4.00e-2,
2.720000e-1,4.00e-2,
2.740000e-1,4.00e-2,
2.760000e-1,4.00e-2,
2.780000e-1,4.00e-2,
2.800000e-1,4.00e-2,
2.820000e-1,4.00e-2,
2.840000e-1,4.00e-2,
2.860000e-1,2.00e-2,
2.880000e-1,2.00e-2,
2.900000e-1,4.00e-2,
2.920000e-1,4.00e-2,
2.940000e-1,4.00e-2,
2.960000e-1,4.00e-2,
2.980000e-1,2.00e-2,
3.000000e-1,2.00e-2,
3.020000e-1,4.00e-2,
3.040000e-1,4.00e-2,
3.060000e-1,6.00e-2,
3.080000e-1,6.00e-2,
3.100000e-1,4.00e-2,
3.120000e-1,4.00e-2,
3.140000e-1,4.00e-2,
3.160000e-1,4.00e-2,
3.180000e-1,2.00e-2,
3.200000e-1,2.00e-2,
3.220000e-1,4.00e-2,
3.240000e-1,4.00e-2,
3.260000e-1,4.00e-2,
3.280000e-1,4.00e-2,
3.300000e-1,4.00e-2,
3.320000e-1,4.00e-2,
3.340000e-1,6.00e-2,
3.360000e-1,6.00e-2,
3.380000e-1,6.00e-2,
3.400000e-1,6.00e-2,
3.420000e-1,4.00e-2,
3.440000e-1,4.00e-2,
3.460000e-1,4.00e-2,
3.480000e-1,4.00e-2,
3.500000e-1,6.00e-2,
3.520000e-1,6.00e-2,
3.540000e-1,6.00e-2,
3.560000e-1,6.00e-2,
3.580000e-1,6.00e-2,
3.600000e-1,6.00e-2,
3.620000e-1,6.00e-2,
3.640000e-1,6.00e-2,
3.660000e-1,4.00e-2,
3.680000e-1,4.00e-2,
3.700000e-1,6.00e-2,
3.720000e-1,6.00e-2,
3.740000e-1,6.00e-2,
3.760000e-1,6.00e-2,
3.780000e-1,4.00e-2,
3.800000e-1,4.00e-2,
3.820000e-1,4.00e-2,
3.840000e-1,4.00e-2,
3.860000e-1,4.00e-2,
3.880000e-1,4.00e-2,
3.900000e-1,6.00e-2,
3.920000e-1,6.00e-2,
3.940000e-1,4.00e-2,
3.960000e-1,4.00e-2,
3.980000e-1,6.00e-2,
4.000000e-1,6.00e-2,
4.020000e-1,4.00e-2,
4.040000e-1,4.00e-2,
4.060000e-1,6.00e-2,
4.080000e-1,6.00e-2,
4.100000e-1,6.00e-2,
4.120000e-1,6.00e-2,
4.140000e-1,4.00e-2,
4.160000e-1,4.00e-2,
4.180000e-1,8.00e-2,
4.200000e-1,8.00e-2,
4.220000e-1,8.00e-2,
4.240000e-1,8.00e-2,
4.260000e-1,6.00e-2,
4.280000e-1,6.00e-2,
4.300000e-1,6.00e-2,
4.320000e-1,6.00e-2,
4.340000e-1,8.00e-2,
4.360000e-1,8.00e-2,
4.380000e-1,8.00e-2,
4.400000e-1,8.00e-2,
4.420000e-1,6.00e-2,
4.440000e-1,6.00e-2,
4.460000e-1,4.00e-2,
4.480000e-1,4.00e-2,
4.500000e-1,4.00e-2,
4.520000e-1,4.00e-2,
4.540000e-1,8.00e-2,
4.560000e-1,8.00e-2,
4.580000e-1,8.00e-2,
4.600000e-1,8.00e-2,
4.620000e-1,8.00e-2,
4.640000e-1,8.00e-2,
4.660000e-1,4.00e-2,
4.680000e-1,4.00e-2,
4.700000e-1,6.00e-2,
4.720000e-1,6.00e-2,
4.740000e-1,4.00e-2,
4.760000e-1,4.00e-2,
4.780000e-1,8.00e-2,
4.800000e-1,8.00e-2,
4.820000e-1,8.00e-2,
4.840000e-1,8.00e-2,
4.860000e-1,8.00e-2,
4.880000e-1,8.00e-2,
4.900000e-1,1.00e-1,
4.920000e-1,1.00e-1,
4.940000e-1,8.00e-2,
4.960000e-1,8.00e-2,
4.980000e-1,1.00e-1,
5.000000e-1,1.00e-1,
5.020000e-1,8.00e-2,
5.040000e-1,8.00e-2,
5.060000e-1,4.00e-2,
5.080000e-1,4.00e-2,
5.100000e-1,8.00e-2,
5.120000e-1,8.00e-2,
5.140000e-1,8.00e-2,
5.160000e-1,8.00e-2,
5.180000e-1,6.00e-2,
5.200000e-1,6.00e-2,
5.220000e-1,8.00e-2,
5.240000e-1,8.00e-2,
5.260000e-1,8.00e-2,
5.280000e-1,8.00e-2,
5.300000e-1,6.00e-2,
5.320000e-1,6.00e-2,
5.340000e-1,1.00e-1,
5.360000e-1,1.00e-1,
5.380000e-1,1.20e-1,
5.400000e-1,1.20e-1,
5.420000e-1,4.00e-2,
5.440000e-1,4.00e-2,
5.460000e-1,1.00e-1,
5.480000e-1,1.00e-1,
5.500000e-1,8.00e-2,
5.520000e-1,8.00e-2,
5.540000e-1,8.00e-2,
5.560000e-1,8.00e-2,
5.580000e-1,8.00e-2,
5.600000e-1,8.00e-2,
5.620000e-1,1.00e-1,
5.640000e-1,1.00e-1,
5.660000e-1,1.00e-1,
5.680000e-1,1.00e-1,
5.700000e-1,8.00e-2,
5.720000e-1,8.00e-2,
5.740000e-1,8.00e-2,
5.760000e-1,8.00e-2,
5.780000e-1,8.00e-2,
5.800000e-1,8.00e-2,
5.820000e-1,1.00e-1,
5.840000e-1,1.00e-1,
5.860000e-1,8.00e-2,
5.880000e-1,8.00e-2,
5.900000e-1,1.00e-1,
5.920000e-1,1.00e-1,
5.940000e-1,8.00e-2,
5.960000e-1,8.00e-2,
5.980000e-1,8.00e-2,
6.000000e-1,8.00e-2,
6.020000e-1,1.20e-1,
6.040000e-1,1.20e-1,
6.060000e-1,8.00e-2,
6.080000e-1,8.00e-2,
6.100000e-1,8.00e-2,
6.120000e-1,8.00e-2,
6.140000e-1,1.00e-1,
6.160000e-1,1.00e-1,
6.180000e-1,1.20e-1,
6.200000e-1,1.20e-1,
6.220000e-1,1.00e-1,
6.240000e-1,1.00e-1,
6.260000e-1,1.00e-1,
6.280000e-1,1.00e-1,
6.300000e-1,1.20e-1,
6.320000e-1,1.20e-1,
6.340000e-1,1.00e-1,
6.360000e-1,1.00e-1,
6.380000e-1,1.00e-1,
6.400000e-1,1.00e-1,
6.420000e-1,1.20e-1,
6.440000e-1,1.20e-1,
6.460000e-1,1.20e-1,
6.480000e-1,1.20e-1,
6.500000e-1,1.00e-1,
6.520000e-1,1.00e-1,
6.540000e-1,1.20e-1,
6.560000e-1,1.20e-1,
6.580000e-1,1.20e-1,
6.600000e-1,1.20e-1,
6.620000e-1,1.20e-1,
6.640000e-1,1.20e-1,
6.660000e-1,1.20e-1,
6.680000e-1,1.20e-1,
6.700000e-1,1.20e-1,
6.720000e-1,1.20e-1,
6.740000e-1,1.20e-1,
6.760000e-1,1.20e-1,
6.780000e-1,1.20e-1,
6.800000e-1,1.20e-1,
6.820000e-1,1.00e-1,
6.840000e-1,1.00e-1,
6.860000e-1,1.20e-1,
6.880000e-1,1.20e-1,
6.900000e-1,1.20e-1,
6.920000e-1,1.20e-1,
6.940000e-1,1.20e-1,
6.960000e-1,1.20e-1,
6.980000e-1,1.20e-1,
7.000000e-1,1.20e-1,
7.020000e-1,1.20e-1,
7.040000e-1,1.20e-1,
7.060000e-1,1.20e-1,
7.080000e-1,1.20e-1,
7.100000e-1,1.20e-1,
7.120000e-1,1.20e-1,
7.140000e-1,1.20e-1,
7.160000e-1,1.20e-1,
7.180000e-1,1.60e-1,
7.200000e-1,1.60e-1,
7.220000e-1,1.40e-1,
7.240000e-1,1.40e-1,
7.260000e-1,1.40e-1,
7.280000e-1,1.40e-1,
7.300000e-1,1.40e-1,
7.320000e-1,1.40e-1,
7.340000e-1,1.40e-1,
7.360000e-1,1.40e-1,
7.380000e-1,1.20e-1,
7.400000e-1,1.20e-1,
7.420000e-1,1.60e-1,
7.440000e-1,1.60e-1,
7.460000e-1,1.40e-1,
7.480000e-1,1.40e-1,
7.500000e-1,1.60e-1,
7.520000e-1,1.60e-1,
7.540000e-1,1.40e-1,
7.560000e-1,1.40e-1,
7.580000e-1,1.60e-1,
7.600000e-1,1.60e-1,
7.620000e-1,1.60e-1,
7.640000e-1,1.60e-1,
7.660000e-1,1.60e-1,
7.680000e-1,1.60e-1,
7.700000e-1,1.60e-1,
7.720000e-1,1.60e-1,
7.740000e-1,1.60e-1,
7.760000e-1,1.60e-1,
7.780000e-1,1.60e-1,
7.800000e-1,1.60e-1,
7.820000e-1,1.80e-1,
7.840000e-1,1.80e-1,
7.860000e-1,1.80e-1,
7.880000e-1,1.80e-1,
7.900000e-1,1.60e-1,
7.920000e-1,1.60e-1,
7.940000e-1,1.80e-1,
7.960000e-1,1.80e-1,
7.980000e-1,1.80e-1,
8.000000e-1,1.80e-1,
8.020000e-1,1.80e-1,
8.040000e-1,1.80e-1,
8.060000e-1,1.80e-1,
8.080000e-1,1.80e-1,
8.100000e-1,2.00e-1,
8.120000e-1,2.00e-1,
8.140000e-1,2.00e-1,
8.160000e-1,2.00e-1,
8.180000e-1,2.20e-1,
8.200000e-1,2.20e-1,
8.220000e-1,2.20e-1,
8.240000e-1,2.20e-1,
8.260000e-1,2.00e-1,
8.280000e-1,2.00e-1,
8.300000e-1,2.40e-1,
8.320000e-1,2.40e-1,
8.340000e-1,2.00e-1,
8.360000e-1,2.00e-1,
8.380000e-1,2.40e-1,
8.400000e-1,2.40e-1,
8.420000e-1,2.00e-1,
8.440000e-1,2.00e-1,
8.460000e-1,2.40e-1,
8.480000e-1,2.40e-1,
8.500000e-1,2.40e-1,
8.520000e-1,2.40e-1,
8.540000e-1,2.40e-1,
8.560000e-1,2.40e-1,
8.580000e-1,2.60e-1,
8.600000e-1,2.60e-1,
8.620000e-1,2.60e-1,
8.640000e-1,2.60e-1,
8.660000e-1,2.60e-1,
8.680000e-1,2.60e-1,
8.700000e-1,2.80e-1,
8.720000e-1,2.80e-1,
8.740000e-1,2.80e-1,
8.760000e-1,2.80e-1,
8.780000e-1,2.80e-1,
8.800000e-1,2.80e-1,
8.820000e-1,3.00e-1,
8.840000e-1,3.00e-1,
8.860000e-1,3.00e-1,
8.880000e-1,3.00e-1,
8.900000e-1,3.20e-1,
8.920000e-1,3.20e-1,
8.940000e-1,3.20e-1,
8.960000e-1,3.20e-1,
8.980000e-1,3.40e-1,
9.000000e-1,3.40e-1,
9.020000e-1,3.60e-1,
9.040000e-1,3.60e-1,
9.060000e-1,3.60e-1,
9.080000e-1,3.60e-1,
9.100000e-1,3.80e-1,
9.120000e-1,3.80e-1,
9.140000e-1,3.80e-1,
9.160000e-1,3.80e-1,
9.180000e-1,3.80e-1,
9.200000e-1,3.80e-1,
9.220000e-1,4.00e-1,
9.240000e-1,4.00e-1,
9.260000e-1,4.20e-1,
9.280000e-1,4.20e-1,
9.300000e-1,4.20e-1,
9.320000e-1,4.20e-1,
9.340000e-1,4.80e-1,
9.360000e-1,4.80e-1,
9.380000e-1,5.00e-1,
9.400000e-1,5.00e-1,
9.420000e-1,5.00e-1,
9.440000e-1,5.00e-1,
9.460000e-1,5.20e-1,
9.480000e-1,5.20e-1,
9.500000e-1,5.80e-1,
9.520000e-1,5.80e-1,
9.540000e-1,6.40e-1,
9.560000e-1,6.40e-1,
9.580000e-1,6.80e-1,
9.600000e-1,6.80e-1,
9.620000e-1,7.20e-1,
9.640000e-1,7.20e-1,
9.660000e-1,8.00e-1,
9.680000e-1,8.00e-1,
9.700000e-1,8.60e-1,
9.720000e-1,8.60e-1,
9.740000e-1,9.20e-1,
9.760000e-1,9.20e-1,
9.780000e-1,9.60e-1,
9.800000e-1,9.60e-1,
9.820000e-1,1.04e+0,
9.840000e-1,1.04e+0,
9.860000e-1,1.06e+0,
9.880000e-1,1.06e+0,
9.900000e-1,1.10e+0,
9.920000e-1,1.10e+0,
9.940000e-1,1.12e+0,
9.960000e-1,1.12e+0,
9.980000e-1,1.22e+0,
1.000000e+0,1.22e+0,
1.002000e+0,1.34e+0,
1.004000e+0,1.34e+0,
1.006000e+0,1.50e+0,
1.008000e+0,1.50e+0,
1.010000e+0,1.60e+0,
1.012000e+0,1.60e+0,
1.014000e+0,1.62e+0,
1.016000e+0,1.88e+0,
1.018000e+0,1.80e+0,
1.020000e+0,2.24e+0,
1.022000e+0,2.24e+0,
1.024000e+0,2.24e+0,
1.026000e+0,2.38e+0,
1.028000e+0,2.64e+0,
1.030000e+0,2.62e+0,
1.032000e+0,2.26e+0,
1.034000e+0,2.38e+0,
1.036000e+0,1.92e+0,
1.038000e+0,2.10e+0,
1.040000e+0,1.78e+0,
1.042000e+0,1.82e+0,
1.044000e+0,1.82e+0,
1.046000e+0,1.92e+0,
1.048000e+0,1.92e+0,
1.050000e+0,1.88e+0,
1.052000e+0,1.26e+0,
1.054000e+0,1.40e+0,
1.056000e+0,9.80e-1,
1.058000e+0,1.06e+0,
1.060000e+0,6.80e-1,
1.062000e+0,8.20e-1,
1.064000e+0,5.00e-1,
1.066000e+0,5.20e-1,
1.068000e+0,2.40e-1,
1.070000e+0,3.20e-1,
1.072000e+0,3.20e-1,
1.074000e+0,2.00e-1,
1.076000e+0,2.00e-1,
1.078000e+0,1.00e-1,
1.080000e+0,1.00e-1,
1.082000e+0,6.00e-2,
1.084000e+0,6.00e-2,
1.086000e+0,6.00e-2,
1.088000e+0,6.00e-2,
1.090000e+0,6.00e-2,
1.092000e+0,6.00e-2,
1.094000e+0,4.00e-2,
1.096000e+0,4.00e-2,
1.098000e+0,4.00e-2,
1.100000e+0,4.00e-2,
1.102000e+0,4.00e-2,
1.104000e+0,4.00e-2,
1.106000e+0,4.00e-2,
1.108000e+0,4.00e-2,
1.110000e+0,4.00e-2,
1.112000e+0,4.00e-2,
1.114000e+0,4.00e-2,
1.116000e+0,4.00e-2,
1.118000e+0,2.00e-2,
1.120000e+0,2.00e-2,
1.122000e+0,2.00e-2,
1.124000e+0,2.00e-2,
1.126000e+0,2.00e-2,
1.128000e+0,2.00e-2,
1.130000e+0,4.00e-2,
1.132000e+0,4.00e-2,
1.134000e+0,2.00e-2,
1.136000e+0,2.00e-2,
1.138000e+0,4.00e-2,
1.140000e+0,4.00e-2,
1.142000e+0,4.00e-2,
1.144000e+0,4.00e-2,
1.146000e+0,2.00e-2,
1.148000e+0,2.00e-2,
1.150000e+0,4.00e-2,
1.152000e+0,4.00e-2,
1.154000e+0,2.00e-2,
1.156000e+0,2.00e-2,
1.158000e+0,2.00e-2,
1.160000e+0,2.00e-2,
1.162000e+0,4.00e-2,
1.164000e+0,4.00e-2,
1.166000e+0,2.00e-2,
1.168000e+0,2.00e-2,
1.170000e+0,2.00e-2,
1.172000e+0,2.00e-2,
1.174000e+0,4.00e-2,
1.176000e+0,4.00e-2,
1.178000e+0,6.00e-2,
1.180000e+0,6.00e-2,
1.182000e+0,4.00e-2,
1.184000e+0,4.00e-2,
1.186000e+0,2.00e-2,
1.188000e+0,2.00e-2,
1.190000e+0,2.00e-2,
1.192000e+0,2.00e-2,
1.194000e+0,4.00e-2,
1.196000e+0,4.00e-2,
1.198000e+0,4.00e-2,
1.200000e+0,4.00e-2,
1.202000e+0,4.00e-2,
1.204000e+0,4.00e-2,
1.206000e+0,0.00e+0,
1.208000e+0,0.00e+0,
1.210000e+0,2.00e-2,
1.212000e+0,2.00e-2,
1.214000e+0,2.00e-2,
1.216000e+0,2.00e-2,
1.218000e+0,2.00e-2,
1.220000e+0,2.00e-2,
1.222000e+0,4.00e-2,
1.224000e+0,4.00e-2,
1.226000e+0,4.00e-2,
1.228000e+0,4.00e-2,
1.230000e+0,4.00e-2,
1.232000e+0,4.00e-2,
1.234000e+0,0.00e+0,
1.236000e+0,0.00e+0,
1.238000e+0,4.00e-2,
1.240000e+0,4.00e-2,
1.242000e+0,2.00e-2,
1.244000e+0,2.00e-2,
1.246000e+0,2.00e-2,
1.248000e+0,2.00e-2,
1.250000e+0,2.00e-2,
1.252000e+0,2.00e-2,
1.254000e+0,2.00e-2,
1.256000e+0,2.00e-2,
1.258000e+0,4.00e-2,
1.260000e+0,4.00e-2,
1.262000e+0,4.00e-2,
1.264000e+0,4.00e-2,
1.266000e+0,2.00e-2,
1.268000e+0,2.00e-2,
1.270000e+0,2.00e-2,
1.272000e+0,2.00e-2,
1.274000e+0,4.00e-2,
1.276000e+0,4.00e-2,
1.278000e+0,2.00e-2,
1.280000e+0,2.00e-2,
1.282000e+0,4.00e-2,
1.284000e+0,4.00e-2,
1.286000e+0,4.00e-2,
1.288000e+0,4.00e-2,
1.290000e+0,4.00e-2,
1.292000e+0,4.00e-2,
1.294000e+0,4.00e-2,
1.296000e+0,4.00e-2,
1.298000e+0,4.00e-2,
1.300000e+0,4.00e-2,
1.302000e+0,2.00e-2,
1.304000e+0,2.00e-2,
1.306000e+0,4.00e-2,
1.308000e+0,4.00e-2,
1.310000e+0,4.00e-2,
1.312000e+0,4.00e-2,
1.314000e+0,4.00e-2,
1.316000e+0,4.00e-2,
1.318000e+0,2.00e-2,
1.320000e+0,2.00e-2,
1.322000e+0,4.00e-2,
1.324000e+0,4.00e-2,
1.326000e+0,4.00e-2,
1.328000e+0,4.00e-2,
1.330000e+0,4.00e-2,
1.332000e+0,4.00e-2,
1.334000e+0,4.00e-2,
1.336000e+0,4.00e-2,
1.338000e+0,4.00e-2,
1.340000e+0,4.00e-2,
1.342000e+0,4.00e-2,
1.344000e+0,4.00e-2,
1.346000e+0,2.00e-2,
1.348000e+0,2.00e-2,
1.350000e+0,4.00e-2,
1.352000e+0,4.00e-2,
1.354000e+0,2.00e-2,
1.356000e+0,2.00e-2,
1.358000e+0,4.00e-2,
1.360000e+0,4.00e-2,
1.362000e+0,4.00e-2,
1.364000e+0,4.00e-2,
1.366000e+0,4.00e-2,
1.368000e+0,4.00e-2,
1.370000e+0,6.00e-2,
1.372000e+0,6.00e-2,
1.374000e+0,4.00e-2,
1.376000e+0,4.00e-2,
1.378000e+0,8.00e-2,
1.380000e+0,8.00e-2,
1.382000e+0,8.00e-2,
1.384000e+0,8.00e-2,
1.386000e+0,1.20e-1,
1.388000e+0,1.20e-1,
1.390000e+0,1.80e-1,
1.392000e+0,4.00e-1,
1.394000e+0,3.40e-1,
1.396000e+0,3.40e-1,
1.398000e+0,4.80e-1,
1.400000e+0,4.80e-1,
1.402000e+0,5.80e-1,
1.404000e+0,9.20e-1,
1.406000e+0,8.20e-1,
1.408000e+0,1.22e+0,
1.410000e+0,1.02e+0,
1.412000e+0,1.64e+0,
1.414000e+0,1.32e+0,
1.416000e+0,1.92e+0,
1.418000e+0,1.80e+0,
1.420000e+0,2.04e+0,
1.422000e+0,2.00e+0,
1.424000e+0,2.00e+0,
1.426000e+0,1.88e+0,
1.428000e+0,1.88e+0,
1.430000e+0,1.86e+0,
1.432000e+0,1.86e+0,
1.434000e+0,2.00e+0,
1.436000e+0,2.52e+0,
1.438000e+0,2.34e+0,
1.440000e+0,2.66e+0,
1.442000e+0,2.60e+0,
1.444000e+0,2.60e+0,
1.446000e+0,2.52e+0,
1.448000e+0,2.28e+0,
1.450000e+0,2.34e+0,
1.452000e+0,2.34e+0,
1.454000e+0,2.26e+0,
1.456000e+0,1.78e+0,
1.458000e+0,1.86e+0,
1.460000e+0,1.64e+0,
1.462000e+0,1.68e+0,
1.464000e+0,1.68e+0,
1.466000e+0,1.60e+0,
1.468000e+0,1.60e+0,
1.470000e+0,1.60e+0,
1.472000e+0,1.60e+0,
1.474000e+0,1.46e+0,
1.476000e+0,1.46e+0,
1.478000e+0,1.32e+0,
1.480000e+0,1.32e+0,
1.482000e+0,1.24e+0,
1.484000e+0,1.24e+0,
1.486000e+0,1.16e+0,
1.488000e+0,1.16e+0,
1.490000e+0,1.10e+0,
1.492000e+0,1.10e+0,
1.494000e+0,1.08e+0,
1.496000e+0,1.08e+0,
1.498000e+0,1.06e+0,
1.500000e+0,1.06e+0,
1.502000e+0,1.04e+0,
1.504000e+0,1.04e+0,
1.506000e+0,1.02e+0,
1.508000e+0,1.02e+0,
1.510000e+0,9.60e-1,
1.512000e+0,9.60e-1,
1.514000e+0,8.60e-1,
1.516000e+0,8.60e-1,
1.518000e+0,8.40e-1,
1.520000e+0,8.40e-1,
1.522000e+0,7.80e-1,
1.524000e+0,7.80e-1,
1.526000e+0,7.20e-1,
1.528000e+0,7.20e-1,
1.530000e+0,6.80e-1,
1.532000e+0,6.80e-1,
1.534000e+0,6.60e-1,
1.536000e+0,6.60e-1,
1.538000e+0,6.00e-1,
1.540000e+0,6.00e-1,
1.542000e+0,5.80e-1,
1.544000e+0,5.80e-1,
1.546000e+0,5.00e-1,
1.548000e+0,5.00e-1,
1.550000e+0,5.00e-1,
1.552000e+0,5.00e-1,
1.554000e+0,4.80e-1,
1.556000e+0,4.80e-1,
1.558000e+0,4.40e-1,
1.560000e+0,4.40e-1,
1.562000e+0,4.40e-1,
1.564000e+0,4.40e-1,
1.566000e+0,4.40e-1,
1.568000e+0,4.40e-1,
1.570000e+0,4.20e-1,
1.572000e+0,4.20e-1,
1.574000e+0,4.00e-1,
1.576000e+0,4.00e-1,
1.578000e+0,3.80e-1,
1.580000e+0,3.80e-1,
1.582000e+0,3.80e-1,
1.584000e+0,3.80e-1,
1.586000e+0,3.60e-1,
1.588000e+0,3.60e-1,
1.590000e+0,3.60e-1,
1.592000e+0,3.60e-1,
1.594000e+0,3.40e-1,
1.596000e+0,3.40e-1,
1.598000e+0,3.40e-1,
1.600000e+0,3.40e-1,
1.602000e+0,3.20e-1,
1.604000e+0,3.20e-1,
1.606000e+0,3.40e-1,
1.608000e+0,3.40e-1,
1.610000e+0,2.80e-1,
1.612000e+0,2.80e-1,
1.614000e+0,3.00e-1,
1.616000e+0,3.00e-1,
1.618000e+0,2.80e-1,
1.620000e+0,2.80e-1,
1.622000e+0,3.20e-1,
1.624000e+0,3.20e-1,
1.626000e+0,2.80e-1,
1.628000e+0,2.80e-1,
1.630000e+0,2.80e-1,
1.632000e+0,2.80e-1,
1.634000e+0,2.80e-1,
1.636000e+0,2.80e-1,
1.638000e+0,2.60e-1,
1.640000e+0,2.60e-1,
1.642000e+0,2.80e-1,
1.644000e+0,2.80e-1,
1.646000e+0,2.60e-1,
1.648000e+0,2.60e-1,
1.650000e+0,2.60e-1,
1.652000e+0,2.60e-1,
1.654000e+0,2.40e-1,
1.656000e+0,2.40e-1,
1.658000e+0,2.40e-1,
1.660000e+0,2.40e-1,
1.662000e+0,2.40e-1,
1.664000e+0,2.40e-1,
1.666000e+0,2.20e-1,
1.668000e+0,2.20e-1,
1.670000e+0,2.00e-1,
1.672000e+0,2.00e-1,
1.674000e+0,2.40e-1,
1.676000e+0,2.40e-1,
1.678000e+0,2.40e-1,
1.680000e+0,2.40e-1,
1.682000e+0,2.00e-1,
1.684000e+0,2.00e-1,
1.686000e+0,2.00e-1,
1.688000e+0,2.00e-1,
1.690000e+0,2.00e-1,
1.692000e+0,2.00e-1,
1.694000e+0,2.00e-1,
1.696000e+0,2.00e-1,
1.698000e+0,1.80e-1,
1.700000e+0,1.80e-1,
1.702000e+0,2.00e-1,
1.704000e+0,2.00e-1,
1.706000e+0,1.80e-1,
1.708000e+0,1.80e-1,
1.710000e+0,1.80e-1,
1.712000e+0,1.80e-1,
1.714000e+0,1.60e-1,
1.716000e+0,1.60e-1,
1.718000e+0,2.00e-1,
1.720000e+0,2.00e-1,
1.722000e+0,1.80e-1,
1.724000e+0,1.80e-1,
1.726000e+0,1.80e-1,
1.728000e+0,1.80e-1,
1.730000e+0,1.60e-1,
1.732000e+0,1.60e-1,
1.734000e+0,1.40e-1,
1.736000e+0,1.40e-1,
1.738000e+0,1.80e-1,
1.740000e+0,1.80e-1,
1.742000e+0,1.60e-1,
1.744000e+0,1.60e-1,
1.746000e+0,1.60e-1,
1.748000e+0,1.60e-1,
1.750000e+0,1.60e-1,
1.752000e+0,1.60e-1,
1.754000e+0,1.40e-1,
1.756000e+0,1.40e-1,
1.758000e+0,1.40e-1,
1.760000e+0,1.40e-1,
1.762000e+0,1.40e-1,
1.764000e+0,1.40e-1,
1.766000e+0,1.40e-1,
1.768000e+0,1.40e-1,
1.770000e+0,1.60e-1,
1.772000e+0,1.60e-1,
1.774000e+0,1.40e-1,
1.776000e+0,1.40e-1,
1.778000e+0,1.20e-1,
1.780000e+0,1.20e-1,
1.782000e+0,1.40e-1,
1.784000e+0,1.40e-1,
1.786000e+0,1.40e-1,
1.788000e+0,1.40e-1,
1.790000e+0,1.40e-1,
1.792000e+0,1.40e-1,
1.794000e+0,1.20e-1,
1.796000e+0,1.20e-1,
1.798000e+0,1.20e-1,
1.800000e+0,1.20e-1,
1.802000e+0,1.20e-1,
1.804000e+0,1.20e-1,
1.806000e+0,1.20e-1,
1.808000e+0,1.20e-1,
1.810000e+0,1.20e-1,
1.812000e+0,1.20e-1,
1.814000e+0,1.20e-1,
1.816000e+0,1.20e-1,
1.818000e+0,1.20e-1,
1.820000e+0,1.20e-1,
1.822000e+0,1.40e-1,
1.824000e+0,1.40e-1,
1.826000e+0,1.20e-1,
1.828000e+0,1.20e-1,
1.830000e+0,1.20e-1,
1.832000e+0,1.20e-1,
1.834000e+0,1.20e-1,
1.836000e+0,1.20e-1,
1.838000e+0,1.20e-1,
1.840000e+0,1.20e-1,
1.842000e+0,1.20e-1,
1.844000e+0,1.20e-1,
1.846000e+0,1.00e-1,
1.848000e+0,1.00e-1,
1.850000e+0,1.20e-1,
1.852000e+0,1.20e-1,
1.854000e+0,1.00e-1,
1.856000e+0,1.00e-1,
1.858000e+0,1.20e-1,
1.860000e+0,1.20e-1,
1.862000e+0,1.20e-1,
1.864000e+0,1.20e-1,
1.866000e+0,1.20e-1,
1.868000e+0,1.20e-1,
1.870000e+0,1.00e-1,
1.872000e+0,1.00e-1,
1.874000e+0,1.20e-1,
1.876000e+0,1.20e-1,
1.878000e+0,1.20e-1,
1.880000e+0,1.20e-1,
1.882000e+0,1.20e-1,
1.884000e+0,1.20e-1,
1.886000e+0,1.00e-1,
1.888000e+0,1.00e-1,
1.890000e+0,1.00e-1,
1.892000e+0,1.00e-1,
1.894000e+0,1.00e-1,
1.896000e+0,1.00e-1,
1.898000e+0,1.00e-1,
1.900000e+0,1.00e-1,
1.902000e+0,1.00e-1,
1.904000e+0,1.00e-1,
1.906000e+0,1.00e-1,
1.908000e+0,1.00e-1,
1.910000e+0,8.00e-2,
1.912000e+0,8.00e-2,
1.914000e+0,1.00e-1,
1.916000e+0,1.00e-1,
1.918000e+0,1.00e-1,
1.920000e+0,1.00e-1,
1.922000e+0,1.00e-1,
1.924000e+0,1.00e-1,
1.926000e+0,8.00e-2,
1.928000e+0,8.00e-2,
1.930000e+0,1.00e-1,
1.932000e+0,1.00e-1,
1.934000e+0,1.00e-1,
1.936000e+0,1.00e-1,
1.938000e+0,1.00e-1,
1.940000e+0,1.00e-1,
1.942000e+0,8.00e-2,
1.944000e+0,8.00e-2,
1.946000e+0,1.00e-1,
1.948000e+0,1.00e-1,
1.950000e+0,8.00e-2,
1.952000e+0,8.00e-2,
1.954000e+0,1.00e-1,
1.956000e+0,1.00e-1,
1.958000e+0,1.00e-1,
1.960000e+0,1.00e-1,
1.962000e+0,8.00e-2,
1.964000e+0,8.00e-2,
1.966000e+0,8.00e-2,
1.968000e+0,8.00e-2,
1.970000e+0,8.00e-2,
1.972000e+0,8.00e-2,
1.974000e+0,8.00e-2,
1.976000e+0,8.00e-2,
1.978000e+0,8.00e-2,
1.980000e+0,8.00e-2,
1.982000e+0,8.00e-2,
1.984000e+0,8.00e-2,
1.986000e+0,4.00e-2,
1.988000e+0,4.00e-2,
1.990000e+0,8.00e-2,
1.992000e+0,8.00e-2,
1.994000e+0,8.00e-2,
1.996000e+0,8.00e-2,
1.998000e+0,8.00e-2,
2.000000e+0,8.00e-2,
2.002000e+0,8.00e-2,
2.004000e+0,8.00e-2,
2.006000e+0,8.00e-2,
2.008000e+0,8.00e-2,
2.010000e+0,1.00e-1,
2.012000e+0,1.00e-1,
2.014000e+0,8.00e-2,
2.016000e+0,8.00e-2,
2.018000e+0,8.00e-2,
2.020000e+0,8.00e-2,
2.022000e+0,8.00e-2,
2.024000e+0,8.00e-2,
2.026000e+0,8.00e-2,
2.028000e+0,8.00e-2,
2.030000e+0,6.00e-2,
2.032000e+0,6.00e-2,
2.034000e+0,1.00e-1,
2.036000e+0,1.00e-1,
2.038000e+0,6.00e-2,
2.040000e+0,6.00e-2,
2.042000e+0,8.00e-2,
2.044000e+0,8.00e-2,
2.046000e+0,8.00e-2,
2.048000e+0,8.00e-2,
2.050000e+0,4.00e-2,
2.052000e+0,4.00e-2,
2.054000e+0,8.00e-2,
2.056000e+0,8.00e-2,
2.058000e+0,8.00e-2,
2.060000e+0,8.00e-2,
2.062000e+0,6.00e-2,
2.064000e+0,6.00e-2,
2.066000e+0,8.00e-2,
2.068000e+0,8.00e-2,
2.070000e+0,4.00e-2,
2.072000e+0,4.00e-2,
2.074000e+0,8.00e-2,
2.076000e+0,8.00e-2,
2.078000e+0,6.00e-2,
2.080000e+0,6.00e-2,
2.082000e+0,8.00e-2,
2.084000e+0,8.00e-2,
2.086000e+0,4.00e-2,
2.088000e+0,4.00e-2,
2.090000e+0,8.00e-2,
2.092000e+0,8.00e-2,
2.094000e+0,6.00e-2,
2.096000e+0,6.00e-2,
2.098000e+0,6.00e-2,
2.100000e+0,6.00e-2,
2.102000e+0,8.00e-2,
2.104000e+0,8.00e-2,
2.106000e+0,8.00e-2,
2.108000e+0,8.00e-2,
2.110000e+0,8.00e-2,
2.112000e+0,8.00e-2,
2.114000e+0,8.00e-2,
2.116000e+0,8.00e-2,
2.118000e+0,8.00e-2,
2.120000e+0,8.00e-2,
2.122000e+0,8.00e-2,
2.124000e+0,8.00e-2,
2.126000e+0,6.00e-2,
2.128000e+0,6.00e-2,
2.130000e+0,4.00e-2,
2.132000e+0,4.00e-2,
2.134000e+0,6.00e-2,
2.136000e+0,6.00e-2,
2.138000e+0,6.00e-2,
2.140000e+0,6.00e-2,
2.142000e+0,4.00e-2,
2.144000e+0,4.00e-2,
2.146000e+0,4.00e-2,
2.148000e+0,4.00e-2,
2.150000e+0,6.00e-2,
2.152000e+0,6.00e-2,
2.154000e+0,6.00e-2,
2.156000e+0,6.00e-2,
2.158000e+0,4.00e-2,
2.160000e+0,4.00e-2,
2.162000e+0,4.00e-2,
2.164000e+0,4.00e-2,
2.166000e+0,4.00e-2,
2.168000e+0,4.00e-2,
2.170000e+0,4.00e-2,
2.172000e+0,4.00e-2,
2.174000e+0,6.00e-2,
2.176000e+0,6.00e-2,
2.178000e+0,6.00e-2,
2.180000e+0,6.00e-2,
2.182000e+0,8.00e-2,
2.184000e+0,8.00e-2,
2.186000e+0,4.00e-2,
2.188000e+0,4.00e-2,
2.190000e+0,6.00e-2,
2.192000e+0,6.00e-2,
2.194000e+0,4.00e-2,
2.196000e+0,4.00e-2,
2.198000e+0,4.00e-2,
2.200000e+0,4.00e-2,
2.202000e+0,4.00e-2,
2.204000e+0,4.00e-2,
2.206000e+0,4.00e-2,
2.208000e+0,4.00e-2,
2.210000e+0,6.00e-2,
2.212000e+0,6.00e-2,
2.214000e+0,4.00e-2,
2.216000e+0,4.00e-2,
2.218000e+0,2.00e-2,
2.220000e+0,2.00e-2,
2.222000e+0,4.00e-2,
2.224000e+0,4.00e-2,
2.226000e+0,4.00e-2,
2.228000e+0,4.00e-2,
2.230000e+0,4.00e-2,
2.232000e+0,4.00e-2,
2.234000e+0,4.00e-2,
2.236000e+0,4.00e-2,
2.238000e+0,2.00e-2,
2.240000e+0,2.00e-2,
2.242000e+0,4.00e-2,
2.244000e+0,4.00e-2,
2.246000e+0,4.00e-2,
2.248000e+0,4.00e-2,
2.250000e+0,4.00e-2,
2.252000e+0,4.00e-2,
2.254000e+0,4.00e-2,
2.256000e+0,4.00e-2,
2.258000e+0,4.00e-2,
2.260000e+0,4.00e-2,
2.262000e+0,6.00e-2,
2.264000e+0,6.00e-2,
2.266000e+0,4.00e-2,
2.268000e+0,4.00e-2,
2.270000e+0,4.00e-2,
2.272000e+0,4.00e-2,
2.274000e+0,4.00e-2,
2.276000e+0,4.00e-2,
2.278000e+0,4.00e-2,
2.280000e+0,4.00e-2,
2.282000e+0,6.00e-2,
2.284000e+0,6.00e-2,
2.286000e+0,6.00e-2,
2.288000e+0,6.00e-2,
2.290000e+0,4.00e-2,
2.292000e+0,4.00e-2,
2.294000e+0,4.00e-2,
2.296000e+0,4.00e-2,
2.298000e+0,4.00e-2,
2.300000e+0,4.00e-2,
2.302000e+0,4.00e-2,
2.304000e+0,4.00e-2,
2.306000e+0,4.00e-2,
2.308000e+0,4.00e-2,
2.310000e+0,4.00e-2,
2.312000e+0,4.00e-2,
2.314000e+0,4.00e-2,
2.316000e+0,4.00e-2,
2.318000e+0,4.00e-2,
2.320000e+0,4.00e-2,
2.322000e+0,4.00e-2,
2.324000e+0,4.00e-2,
2.326000e+0,6.00e-2,
2.328000e+0,6.00e-2,
2.330000e+0,2.00e-2,
2.332000e+0,2.00e-2,
2.334000e+0,2.00e-2,
2.336000e+0,2.00e-2,
2.338000e+0,6.00e-2,
2.340000e+0,6.00e-2,
2.342000e+0,6.00e-2,
2.344000e+0,6.00e-2,
2.346000e+0,4.00e-2,
2.348000e+0,4.00e-2,
2.350000e+0,4.00e-2,
2.352000e+0,4.00e-2,
2.354000e+0,4.00e-2,
2.356000e+0,4.00e-2,
2.358000e+0,6.00e-2,
2.360000e+0,6.00e-2,
2.362000e+0,4.00e-2,
2.364000e+0,4.00e-2,
2.366000e+0,4.00e-2,
2.368000e+0,4.00e-2,
2.370000e+0,4.00e-2,
2.372000e+0,4.00e-2,
2.374000e+0,4.00e-2,
2.376000e+0,4.00e-2,
2.378000e+0,4.00e-2,
2.380000e+0,4.00e-2,
2.382000e+0,4.00e-2,
2.384000e+0,4.00e-2,
2.386000e+0,4.00e-2,
2.388000e+0,4.00e-2,
2.390000e+0,4.00e-2,
2.392000e+0,4.00e-2,
2.394000e+0,4.00e-2,
2.396000e+0,4.00e-2,
2.398000e+0,4.00e-2,
2.400000e+0,4.00e-2,
2.402000e+0,4.00e-2,
2.404000e+0,4.00e-2,
2.406000e+0,4.00e-2,
2.408000e+0,4.00e-2,
2.410000e+0,4.00e-2,
2.412000e+0,4.00e-2,
2.414000e+0,4.00e-2,
2.416000e+0,4.00e-2,
2.418000e+0,4.00e-2,
2.420000e+0,4.00e-2,
2.422000e+0,4.00e-2,
2.424000e+0,4.00e-2,
2.426000e+0,4.00e-2,
2.428000e+0,4.00e-2,
2.430000e+0,4.00e-2,
2.432000e+0,4.00e-2,
2.434000e+0,4.00e-2,
2.436000e+0,4.00e-2,
2.438000e+0,4.00e-2,
2.440000e+0,4.00e-2,
2.442000e+0,4.00e-2,
2.444000e+0,4.00e-2,
2.446000e+0,4.00e-2,
2.448000e+0,4.00e-2,
2.450000e+0,2.00e-2,
2.452000e+0,2.00e-2,
2.454000e+0,4.00e-2,
2.456000e+0,4.00e-2,
2.458000e+0,2.00e-2,
2.460000e+0,2.00e-2,
2.462000e+0,4.00e-2,
2.464000e+0,4.00e-2,
2.466000e+0,4.00e-2,
2.468000e+0,4.00e-2,
2.470000e+0,4.00e-2,
2.472000e+0,4.00e-2,
2.474000e+0,4.00e-2,
2.476000e+0,4.00e-2,
2.478000e+0,2.00e-2,
2.480000e+0,2.00e-2,
2.482000e+0,4.00e-2,
2.484000e+0,4.00e-2,
2.486000e+0,2.00e-2,
2.488000e+0,2.00e-2,
2.490000e+0,2.00e-2,
2.492000e+0,2.00e-2,
2.494000e+0,4.00e-2,
2.496000e+0,4.00e-2,
2.498000e+0,4.00e-2,
2.500000e+0,4.00e-2,
2.502000e+0,4.00e-2,
2.504000e+0,4.00e-2,
2.506000e+0,4.00e-2,
2.508000e+0,4.00e-2,
2.510000e+0,4.00e-2,
2.512000e+0,4.00e-2,
2.514000e+0,2.00e-2,
2.516000e+0,2.00e-2,
2.518000e+0,2.00e-2,
2.520000e+0,2.00e-2,
2.522000e+0,4.00e-2,
2.524000e+0,4.00e-2,
2.526000e+0,4.00e-2,
2.528000e+0,4.00e-2,
2.530000e+0,2.00e-2,
2.532000e+0,2.00e-2,
2.534000e+0,4.00e-2,
2.536000e+0,4.00e-2,
2.538000e+0,2.00e-2,
2.540000e+0,2.00e-2,
2.542000e+0,4.00e-2,
2.544000e+0,4.00e-2,
2.546000e+0,4.00e-2,
2.548000e+0,4.00e-2,
2.550000e+0,4.00e-2,
2.552000e+0,4.00e-2,
2.554000e+0,2.00e-2,
2.556000e+0,2.00e-2,
2.558000e+0,4.00e-2,
2.560000e+0,4.00e-2,
2.562000e+0,2.00e-2,
2.564000e+0,2.00e-2,
2.566000e+0,2.00e-2,
2.568000e+0,2.00e-2,
2.570000e+0,2.00e-2,
2.572000e+0,2.00e-2,
2.574000e+0,2.00e-2,
2.576000e+0,2.00e-2,
2.578000e+0,2.00e-2,
2.580000e+0,2.00e-2,
2.582000e+0,2.00e-2,
2.584000e+0,2.00e-2,
2.586000e+0,4.00e-2,
2.588000e+0,4.00e-2,
2.590000e+0,2.00e-2,
2.592000e+0,2.00e-2,
2.594000e+0,4.00e-2,
2.596000e+0,4.00e-2,
2.598000e+0,4.00e-2,
2.600000e+0,4.00e-2,
2.602000e+0,2.00e-2,
2.604000e+0,2.00e-2,
2.606000e+0,2.00e-2,
2.608000e+0,2.00e-2,
2.610000e+0,4.00e-2,
2.612000e+0,4.00e-2,
2.614000e+0,2.00e-2,
2.616000e+0,2.00e-2,
2.618000e+0,2.00e-2,
2.620000e+0,2.00e-2,
2.622000e+0,2.00e-2,
2.624000e+0,2.00e-2,
2.626000e+0,4.00e-2,
2.628000e+0,4.00e-2,
2.630000e+0,4.00e-2,
2.632000e+0,4.00e-2,
2.634000e+0,2.00e-2,
2.636000e+0,2.00e-2,
2.638000e+0,2.00e-2,
2.640000e+0,2.00e-2,
2.642000e+0,4.00e-2,
2.644000e+0,4.00e-2,
2.646000e+0,2.00e-2,
2.648000e+0,2.00e-2,
2.650000e+0,4.00e-2,
2.652000e+0,4.00e-2,
2.654000e+0,4.00e-2,
2.656000e+0,4.00e-2,
2.658000e+0,2.00e-2,
2.660000e+0,2.00e-2,
2.662000e+0,4.00e-2,
2.664000e+0,4.00e-2,
2.666000e+0,2.00e-2,
2.668000e+0,2.00e-2,
2.670000e+0,4.00e-2,
2.672000e+0,4.00e-2,
2.674000e+0,2.00e-2,
2.676000e+0,2.00e-2,
2.678000e+0,2.00e-2,
2.680000e+0,2.00e-2,
2.682000e+0,2.00e-2,
2.684000e+0,2.00e-2,
2.686000e+0,0.00e+0,
2.688000e+0,0.00e+0,
2.690000e+0,4.00e-2,
2.692000e+0,4.00e-2,
2.694000e+0,2.00e-2,
2.696000e+0,2.00e-2,
2.698000e+0,2.00e-2,
2.700000e+0,2.00e-2,
2.702000e+0,4.00e-2,
2.704000e+0,4.00e-2,
2.706000e+0,4.00e-2,
2.708000e+0,4.00e-2,
2.710000e+0,4.00e-2,
2.712000e+0,4.00e-2,
2.714000e+0,2.00e-2,
2.716000e+0,2.00e-2,
2.718000e+0,2.00e-2,
2.720000e+0,2.00e-2,
2.722000e+0,0.00e+0,
2.724000e+0,0.00e+0,
2.726000e+0,2.00e-2,
2.728000e+0,2.00e-2,
2.730000e+0,4.00e-2,
2.732000e+0,4.00e-2,
2.734000e+0,2.00e-2,
2.736000e+0,2.00e-2,
2.738000e+0,2.00e-2,
2.740000e+0,2.00e-2,
2.742000e+0,4.00e-2,
2.744000e+0,4.00e-2,
2.746000e+0,2.00e-2,
2.748000e+0,2.00e-2,
2.750000e+0,2.00e-2,
2.752000e+0,2.00e-2,
2.754000e+0,4.00e-2,
2.756000e+0,4.00e-2,
2.758000e+0,2.00e-2,
2.760000e+0,2.00e-2,
2.762000e+0,2.00e-2,
2.764000e+0,2.00e-2,
2.766000e+0,2.00e-2,
2.768000e+0,2.00e-2,
2.770000e+0,4.00e-2,
2.772000e+0,4.00e-2,
2.774000e+0,2.00e-2,
2.776000e+0,2.00e-2,
2.778000e+0,4.00e-2,
2.780000e+0,4.00e-2,
2.782000e+0,2.00e-2,
2.784000e+0,2.00e-2,
2.786000e+0,2.00e-2,
2.788000e+0,2.00e-2,
2.790000e+0,2.00e-2,
2.792000e+0,2.00e-2,
2.794000e+0,4.00e-2,
2.796000e+0,4.00e-2,
2.798000e+0,4.00e-2,
2.800000e+0,4.00e-2,
2.802000e+0,2.00e-2,
2.804000e+0,2.00e-2,
2.806000e+0,2.00e-2,
2.808000e+0,2.00e-2,
2.810000e+0,4.00e-2,
2.812000e+0,4.00e-2,
2.814000e+0,2.00e-2,
2.816000e+0,2.00e-2,
2.818000e+0,2.00e-2,
2.820000e+0,2.00e-2,
2.822000e+0,4.00e-2,
2.824000e+0,4.00e-2,
2.826000e+0,4.00e-2,
2.828000e+0,4.00e-2,
2.830000e+0,2.00e-2,
2.832000e+0,2.00e-2,
2.834000e+0,2.00e-2,
2.836000e+0,2.00e-2,
2.838000e+0,2.00e-2,
2.840000e+0,2.00e-2,
2.842000e+0,0.00e+0,
2.844000e+0,0.00e+0,
2.846000e+0,2.00e-2,
2.848000e+0,2.00e-2,
2.850000e+0,4.00e-2,
2.852000e+0,4.00e-2,
2.854000e+0,2.00e-2,
2.856000e+0,2.00e-2,
2.858000e+0,4.00e-2,
2.860000e+0,4.00e-2,
2.862000e+0,2.00e-2,
2.864000e+0,2.00e-2,
2.866000e+0,2.00e-2,
2.868000e+0,2.00e-2,
2.870000e+0,2.00e-2,
2.872000e+0,2.00e-2,
2.874000e+0,2.00e-2,
2.876000e+0,2.00e-2,
2.878000e+0,2.00e-2,
2.880000e+0,2.00e-2,
2.882000e+0,4.00e-2,
2.884000e+0,4.00e-2,
2.886000e+0,2.00e-2,
2.888000e+0,2.00e-2,
2.890000e+0,2.00e-2,
2.892000e+0,2.00e-2,
2.894000e+0,0.00e+0,
2.896000e+0,0.00e+0,
2.898000e+0,2.00e-2,
2.900000e+0,2.00e-2,
2.902000e+0,2.00e-2,
2.904000e+0,2.00e-2,
2.906000e+0,2.00e-2,
2.908000e+0,2.00e-2,
2.910000e+0,2.00e-2,
2.912000e+0,2.00e-2,
2.914000e+0,2.00e-2,
2.916000e+0,2.00e-2,
2.918000e+0,2.00e-2,
2.920000e+0,2.00e-2,
2.922000e+0,2.00e-2,
2.924000e+0,2.00e-2,
2.926000e+0,4.00e-2,
2.928000e+0,4.00e-2,
2.930000e+0,4.00e-2,
2.932000e+0,4.00e-2,
2.934000e+0,0.00e+0,
2.936000e+0,0.00e+0,
2.938000e+0,4.00e-2,
2.940000e+0,4.00e-2,
2.942000e+0,4.00e-2,
2.944000e+0,4.00e-2,
2.946000e+0,2.00e-2,
2.948000e+0,2.00e-2,
2.950000e+0,4.00e-2,
2.952000e+0,4.00e-2,
2.954000e+0,2.00e-2,
2.956000e+0,2.00e-2,
2.958000e+0,2.00e-2,
2.960000e+0,2.00e-2,
2.962000e+0,2.00e-2,
2.964000e+0,2.00e-2,
2.966000e+0,2.00e-2,
2.968000e+0,2.00e-2,
2.970000e+0,4.00e-2,
2.972000e+0,4.00e-2,
2.974000e+0,2.00e-2,
2.976000e+0,2.00e-2,
2.978000e+0,4.00e-2,
2.980000e+0,4.00e-2,
2.982000e+0,4.00e-2,
2.984000e+0,4.00e-2,
2.986000e+0,2.00e-2,
2.988000e+0,2.00e-2,
2.990000e+0,2.00e-2,
2.992000e+0,2.00e-2,
2.994000e+0,2.00e-2,
2.996000e+0,2.00e-2,
2.998000e+0,4.00e-2,
3.000000e+0,4.00e-2,
3.002000e+0,4.00e-2,
3.004000e+0,4.00e-2,
3.006000e+0,2.00e-2,
3.008000e+0,2.00e-2,
3.010000e+0,4.00e-2,
3.012000e+0,4.00e-2,
3.014000e+0,2.00e-2,
3.016000e+0,2.00e-2,
3.018000e+0,4.00e-2,
3.020000e+0,4.00e-2,
3.022000e+0,4.00e-2,
3.024000e+0,4.00e-2,
3.026000e+0,2.00e-2,
3.028000e+0,2.00e-2,
3.030000e+0,2.00e-2,
3.032000e+0,2.00e-2,
3.034000e+0,4.00e-2,
3.036000e+0,4.00e-2,
3.038000e+0,4.00e-2,
3.040000e+0,4.00e-2,
3.042000e+0,2.00e-2,
3.044000e+0,2.00e-2,
3.046000e+0,2.00e-2,
3.048000e+0,2.00e-2,
3.050000e+0,4.00e-2,
3.052000e+0,4.00e-2,
3.054000e+0,4.00e-2,
3.056000e+0,4.00e-2,
3.058000e+0,4.00e-2,
3.060000e+0,4.00e-2,
3.062000e+0,2.00e-2,
3.064000e+0,2.00e-2,
3.066000e+0,2.00e-2,
3.068000e+0,2.00e-2,
3.070000e+0,4.00e-2,
3.072000e+0,4.00e-2,
3.074000e+0,2.00e-2,
3.076000e+0,2.00e-2,
3.078000e+0,2.00e-2,
3.080000e+0,2.00e-2,
3.082000e+0,2.00e-2,
3.084000e+0,2.00e-2,
3.086000e+0,2.00e-2,
3.088000e+0,2.00e-2,
3.090000e+0,4.00e-2,
3.092000e+0,4.00e-2,
3.094000e+0,2.00e-2,
3.096000e+0,2.00e-2,
3.098000e+0,2.00e-2,
3.100000e+0,2.00e-2,
3.102000e+0,2.00e-2,
3.104000e+0,2.00e-2,
3.106000e+0,2.00e-2,
3.108000e+0,2.00e-2,
3.110000e+0,2.00e-2,
3.112000e+0,2.00e-2,
3.114000e+0,4.00e-2,
3.116000e+0,4.00e-2,
3.118000e+0,4.00e-2,
3.120000e+0,4.00e-2,
3.122000e+0,4.00e-2,
3.124000e+0,4.00e-2,
3.126000e+0,2.00e-2,
3.128000e+0,2.00e-2,
3.130000e+0,2.00e-2,
3.132000e+0,2.00e-2,
3.134000e+0,2.00e-2,
3.136000e+0,2.00e-2,
3.138000e+0,2.00e-2,
3.140000e+0,2.00e-2,
3.142000e+0,2.00e-2,
3.144000e+0,2.00e-2,
3.146000e+0,2.00e-2,
3.148000e+0,2.00e-2,
3.150000e+0,4.00e-2,
3.152000e+0,4.00e-2,
3.154000e+0,2.00e-2,
3.156000e+0,2.00e-2,
3.158000e+0,2.00e-2,
3.160000e+0,2.00e-2,
3.162000e+0,4.00e-2,
3.164000e+0,4.00e-2,
3.166000e+0,2.00e-2,
3.168000e+0,2.00e-2,
3.170000e+0,2.00e-2,
3.172000e+0,2.00e-2,
3.174000e+0,2.00e-2,
3.176000e+0,2.00e-2,
3.178000e+0,4.00e-2,
3.180000e+0,4.00e-2,
3.182000e+0,2.00e-2,
3.184000e+0,2.00e-2,
3.186000e+0,4.00e-2,
3.188000e+0,4.00e-2,
3.190000e+0,4.00e-2,
3.192000e+0,4.00e-2,
3.194000e+0,2.00e-2,
3.196000e+0,2.00e-2,
3.198000e+0,4.00e-2,
3.200000e+0,4.00e-2,
3.202000e+0,0.00e+0,
3.204000e+0,0.00e+0,
3.206000e+0,4.00e-2,
3.208000e+0,4.00e-2,
3.210000e+0,2.00e-2,
3.212000e+0,2.00e-2,
3.214000e+0,4.00e-2,
3.216000e+0,4.00e-2,
3.218000e+0,4.00e-2,
3.220000e+0,4.00e-2,
3.222000e+0,2.00e-2,
3.224000e+0,2.00e-2,
3.226000e+0,4.00e-2,
3.228000e+0,4.00e-2,
3.230000e+0,2.00e-2,
3.232000e+0,2.00e-2,
3.234000e+0,4.00e-2,
3.236000e+0,4.00e-2,
3.238000e+0,2.00e-2,
3.240000e+0,2.00e-2,
3.242000e+0,0.00e+0,
3.244000e+0,0.00e+0,
3.246000e+0,4.00e-2,
3.248000e+0,4.00e-2,
3.250000e+0,0.00e+0,
3.252000e+0,0.00e+0,
3.254000e+0,4.00e-2,
3.256000e+0,4.00e-2,
3.258000e+0,0.00e+0,
3.260000e+0,0.00e+0,
3.262000e+0,4.00e-2,
3.264000e+0,4.00e-2,
3.266000e+0,2.00e-2,
3.268000e+0,2.00e-2,
3.270000e+0,2.00e-2,
3.272000e+0,2.00e-2,
3.274000e+0,2.00e-2,
3.276000e+0,2.00e-2,
3.278000e+0,2.00e-2,
3.280000e+0,2.00e-2,
3.282000e+0,2.00e-2,
3.284000e+0,2.00e-2,
3.286000e+0,0.00e+0,
3.288000e+0,0.00e+0,
3.290000e+0,2.00e-2,
3.292000e+0,2.00e-2,
3.294000e+0,4.00e-2,
3.296000e+0,4.00e-2,
3.298000e+0,2.00e-2,
3.300000e+0,2.00e-2,
3.302000e+0,4.00e-2,
3.304000e+0,4.00e-2,
3.306000e+0,4.00e-2,
3.308000e+0,4.00e-2,
3.310000e+0,2.00e-2,
3.312000e+0,2.00e-2,
3.314000e+0,2.00e-2,
3.316000e+0,2.00e-2,
3.318000e+0,2.00e-2,
3.320000e+0,2.00e-2,
3.322000e+0,2.00e-2,
3.324000e+0,2.00e-2,
3.326000e+0,2.00e-2,
3.328000e+0,2.00e-2,
3.330000e+0,2.00e-2,
3.332000e+0,2.00e-2,
3.334000e+0,4.00e-2,
3.336000e+0,4.00e-2,
3.338000e+0,2.00e-2,
3.340000e+0,2.00e-2,
3.342000e+0,4.00e-2,
3.344000e+0,4.00e-2,
3.346000e+0,4.00e-2,
3.348000e+0,4.00e-2,
3.350000e+0,4.00e-2,
3.352000e+0,4.00e-2,
3.354000e+0,4.00e-2,
3.356000e+0,4.00e-2,
3.358000e+0,4.00e-2,
3.360000e+0,4.00e-2,
3.362000e+0,4.00e-2,
3.364000e+0,4.00e-2,
3.366000e+0,2.00e-2,
3.368000e+0,2.00e-2,
3.370000e+0,4.00e-2,
3.372000e+0,4.00e-2,
3.374000e+0,4.00e-2,
3.376000e+0,4.00e-2,
3.378000e+0,4.00e-2,
3.380000e+0,4.00e-2,
3.382000e+0,4.00e-2,
3.384000e+0,4.00e-2,
3.386000e+0,4.00e-2,
3.388000e+0,4.00e-2,
3.390000e+0,4.00e-2,
3.392000e+0,4.00e-2,
3.394000e+0,2.00e-2,
3.396000e+0,2.00e-2,
3.398000e+0,4.00e-2,
3.400000e+0,4.00e-2,
3.402000e+0,2.00e-2,
3.404000e+0,2.00e-2,
3.406000e+0,6.00e-2,
3.408000e+0,6.00e-2,
3.410000e+0,4.00e-2,
3.412000e+0,4.00e-2,
3.414000e+0,4.00e-2,
3.416000e+0,4.00e-2,
3.418000e+0,6.00e-2,
3.420000e+0,6.00e-2,
3.422000e+0,4.00e-2,
3.424000e+0,4.00e-2,
3.426000e+0,1.00e-1,
3.428000e+0,1.00e-1,
3.430000e+0,8.00e-2,
3.432000e+0,8.00e-2,
3.434000e+0,1.20e-1,
3.436000e+0,1.20e-1,
3.438000e+0,2.00e-1,
3.440000e+0,4.60e-1,
3.442000e+0,3.80e-1,
3.444000e+0,6.80e-1,
3.446000e+0,6.80e-1,
3.448000e+0,6.80e-1,
3.450000e+0,8.00e-1,
3.452000e+0,1.18e+0,
3.454000e+0,1.04e+0,
3.456000e+0,1.58e+0,
3.458000e+0,1.48e+0,
3.460000e+0,1.90e+0,
3.462000e+0,1.88e+0,
3.464000e+0,1.88e+0,
3.466000e+0,1.76e+0,
3.468000e+0,1.76e+0,
3.470000e+0,1.72e+0,
3.472000e+0,2.04e+0,
3.474000e+0,1.96e+0,
3.476000e+0,2.34e+0,
3.478000e+0,2.22e+0,
3.480000e+0,2.22e+0,
3.482000e+0,2.28e+0,
3.484000e+0,2.04e+0,
3.486000e+0,2.10e+0,
3.488000e+0,1.78e+0,
3.490000e+0,1.84e+0,
3.492000e+0,1.50e+0,
3.494000e+0,1.54e+0,
3.496000e+0,1.54e+0,
3.498000e+0,1.46e+0,
3.500000e+0,1.46e+0,
3.502000e+0,1.46e+0,
3.504000e+0,1.24e+0,
3.506000e+0,1.28e+0,
3.508000e+0,1.28e+0,
3.510000e+0,1.16e+0,
3.512000e+0,1.16e+0,
3.514000e+0,1.06e+0,
3.516000e+0,1.06e+0,
3.518000e+0,1.04e+0,
3.520000e+0,1.04e+0,
3.522000e+0,9.60e-1,
3.524000e+0,9.60e-1,
3.526000e+0,9.60e-1,
3.528000e+0,9.60e-1,
3.530000e+0,9.20e-1,
3.532000e+0,9.20e-1,
3.534000e+0,8.80e-1,
3.536000e+0,8.80e-1,
3.538000e+0,8.40e-1,
3.540000e+0,8.40e-1,
3.542000e+0,7.40e-1,
3.544000e+0,7.40e-1,
3.546000e+0,6.80e-1,
3.548000e+0,6.80e-1,
3.550000e+0,6.60e-1,
3.552000e+0,6.60e-1,
3.554000e+0,6.00e-1,
3.556000e+0,6.00e-1,
3.558000e+0,5.60e-1,
3.560000e+0,5.60e-1,
3.562000e+0,5.20e-1,
3.564000e+0,5.20e-1,
3.566000e+0,4.80e-1,
3.568000e+0,4.80e-1,
3.570000e+0,4.60e-1,
3.572000e+0,4.60e-1,
3.574000e+0,4.20e-1,
3.576000e+0,4.20e-1,
3.578000e+0,4.40e-1,
3.580000e+0,4.40e-1,
3.582000e+0,3.80e-1,
3.584000e+0,3.80e-1,
3.586000e+0,3.40e-1,
3.588000e+0,3.40e-1,
3.590000e+0,3.80e-1,
3.592000e+0,3.80e-1,
3.594000e+0,3.40e-1,
3.596000e+0,3.40e-1,
3.598000e+0,3.60e-1,
3.600000e+0,3.60e-1,
3.602000e+0,3.20e-1,
3.604000e+0,3.20e-1,
3.606000e+0,3.40e-1,
3.608000e+0,3.40e-1,
3.610000e+0,3.00e-1,
3.612000e+0,3.00e-1,
3.614000e+0,3.20e-1,
3.616000e+0,3.20e-1,
3.618000e+0,3.40e-1,
3.620000e+0,3.40e-1,
3.622000e+0,3.20e-1,
3.624000e+0,3.20e-1,
3.626000e+0,3.20e-1,
3.628000e+0,3.20e-1,
3.630000e+0,3.60e-1,
3.632000e+0,3.60e-1,
3.634000e+0,3.60e-1,
3.636000e+0,3.60e-1,
3.638000e+0,3.40e-1,
3.640000e+0,3.40e-1,
3.642000e+0,3.60e-1,
3.644000e+0,3.60e-1,
3.646000e+0,3.60e-1,
3.648000e+0,3.60e-1,
3.650000e+0,3.80e-1,
3.652000e+0,3.80e-1,
3.654000e+0,3.80e-1,
3.656000e+0,3.80e-1,
3.658000e+0,4.00e-1,
3.660000e+0,4.00e-1,
3.662000e+0,4.20e-1,
3.664000e+0,4.20e-1,
3.666000e+0,4.40e-1,
3.668000e+0,4.40e-1,
3.670000e+0,4.40e-1,
3.672000e+0,4.40e-1,
3.674000e+0,4.40e-1,
3.676000e+0,4.40e-1,
3.678000e+0,4.80e-1,
3.680000e+0,4.80e-1,
3.682000e+0,5.00e-1,
3.684000e+0,5.00e-1,
3.686000e+0,5.20e-1,
3.688000e+0,5.20e-1,
3.690000e+0,5.20e-1,
3.692000e+0,5.20e-1,
3.694000e+0,6.00e-1,
3.696000e+0,6.00e-1,
3.698000e+0,6.00e-1,
3.700000e+0,6.00e-1,
3.702000e+0,6.60e-1,
3.704000e+0,6.60e-1,
3.706000e+0,6.80e-1,
3.708000e+0,6.80e-1,
3.710000e+0,7.20e-1,
3.712000e+0,7.20e-1,
3.714000e+0,7.60e-1,
3.716000e+0,7.60e-1,
3.718000e+0,7.80e-1,
3.720000e+0,7.80e-1,
3.722000e+0,8.60e-1,
3.724000e+0,8.60e-1,
3.726000e+0,8.80e-1,
3.728000e+0,8.80e-1,
3.730000e+0,9.00e-1,
3.732000e+0,9.00e-1,
3.734000e+0,9.60e-1,
3.736000e+0,9.60e-1,
3.738000e+0,9.80e-1,
3.740000e+0,9.80e-1,
3.742000e+0,9.60e-1,
3.744000e+0,9.60e-1,
3.746000e+0,1.00e+0,
3.748000e+0,1.00e+0,
3.750000e+0,1.04e+0,
3.752000e+0,1.04e+0,
3.754000e+0,1.10e+0,
3.756000e+0,1.10e+0,
3.758000e+0,1.16e+0,
3.760000e+0,1.16e+0,
3.762000e+0,1.26e+0,
3.764000e+0,1.26e+0,
3.766000e+0,1.44e+0,
3.768000e+0,1.44e+0,
3.770000e+0,1.48e+0,
3.772000e+0,1.48e+0,
3.774000e+0,1.48e+0,
3.776000e+0,1.48e+0,
3.778000e+0,1.56e+0,
3.780000e+0,1.80e+0,
3.782000e+0,1.68e+0,
3.784000e+0,2.00e+0,
3.786000e+0,1.94e+0,
3.788000e+0,1.94e+0,
3.790000e+0,1.96e+0,
3.792000e+0,2.20e+0,
3.794000e+0,2.12e+0,
3.796000e+0,2.36e+0,
3.798000e+0,2.36e+0,
3.800000e+0,2.04e+0,
3.802000e+0,2.20e+0,
3.804000e+0,1.86e+0,
3.806000e+0,2.02e+0,
3.808000e+0,1.72e+0,
3.810000e+0,1.76e+0,
3.812000e+0,1.76e+0,
3.814000e+0,1.72e+0,
3.816000e+0,1.72e+0,
3.818000e+0,1.92e+0,
3.820000e+0,1.54e+0,
3.822000e+0,1.88e+0,
3.824000e+0,1.34e+0,
3.826000e+0,1.48e+0,
3.828000e+0,1.00e+0,
3.830000e+0,1.26e+0,
3.832000e+0,8.20e-1,
3.834000e+0,8.40e-1,
3.836000e+0,5.80e-1,
3.838000e+0,7.40e-1,
3.840000e+0,4.80e-1,
3.842000e+0,5.20e-1,
3.844000e+0,5.20e-1,
3.846000e+0,4.00e-1,
3.848000e+0,1.40e-1,
3.850000e+0,2.00e-1,
3.852000e+0,2.00e-1,
3.854000e+0,1.60e-1,
3.856000e+0,1.60e-1,
3.858000e+0,8.00e-2,
3.860000e+0,8.00e-2,
3.862000e+0,4.00e-2,
3.864000e+0,4.00e-2,
3.866000e+0,6.00e-2,
3.868000e+0,6.00e-2,
3.870000e+0,4.00e-2,
3.872000e+0,4.00e-2,
3.874000e+0,4.00e-2,
3.876000e+0,4.00e-2,
3.878000e+0,4.00e-2,
3.880000e+0,4.00e-2,
3.882000e+0,4.00e-2,
3.884000e+0,4.00e-2,
3.886000e+0,4.00e-2,
3.888000e+0,4.00e-2,
3.890000e+0,2.00e-2,
3.892000e+0,2.00e-2,
3.894000e+0,4.00e-2,
3.896000e+0,4.00e-2,
3.898000e+0,4.00e-2,
3.900000e+0,4.00e-2,
3.902000e+0,4.00e-2,
3.904000e+0,4.00e-2,
3.906000e+0,2.00e-2,
3.908000e+0,2.00e-2,
3.910000e+0,2.00e-2,
3.912000e+0,2.00e-2,
3.914000e+0,4.00e-2,
3.916000e+0,4.00e-2,
3.918000e+0,2.00e-2,
3.920000e+0,2.00e-2,
3.922000e+0,4.00e-2,
3.924000e+0,4.00e-2,
3.926000e+0,4.00e-2,
3.928000e+0,4.00e-2,
3.930000e+0,4.00e-2,
3.932000e+0,4.00e-2,
3.934000e+0,4.00e-2,
3.936000e+0,4.00e-2,
3.938000e+0,4.00e-2,
3.940000e+0,4.00e-2,
3.942000e+0,4.00e-2,
3.944000e+0,4.00e-2,
3.946000e+0,2.00e-2,
3.948000e+0,2.00e-2,
3.950000e+0,2.00e-2,
3.952000e+0,2.00e-2,
3.954000e+0,2.00e-2,
3.956000e+0,2.00e-2,
3.958000e+0,4.00e-2,
3.960000e+0,4.00e-2,
3.962000e+0,4.00e-2,
3.964000e+0,4.00e-2,
3.966000e+0,4.00e-2,
3.968000e+0,4.00e-2,
3.970000e+0,2.00e-2,
3.972000e+0,2.00e-2,
3.974000e+0,4.00e-2,
3.976000e+0,4.00e-2,
3.978000e+0,2.00e-2,
3.980000e+0,2.00e-2,
3.982000e+0,4.00e-2,
3.984000e+0,4.00e-2,
3.986000e+0,4.00e-2,
3.988000e+0,4.00e-2,
3.990000e+0,2.00e-2,
3.992000e+0,2.00e-2,
3.994000e+0,4.00e-2,
3.996000e+0,4.00e-2,
3.998000e+0,4.00e-2,
4.000000e+0,4.00e-2,
4.002000e+0,2.00e-2,
4.004000e+0,2.00e-2,
4.006000e+0,2.00e-2,
4.008000e+0,2.00e-2,
4.010000e+0,2.00e-2,
4.012000e+0,2.00e-2,
4.014000e+0,2.00e-2,
4.016000e+0,2.00e-2,
4.018000e+0,2.00e-2,
4.020000e+0,2.00e-2,
4.022000e+0,4.00e-2,
4.024000e+0,4.00e-2,
4.026000e+0,2.00e-2,
4.028000e+0,2.00e-2,
4.030000e+0,2.00e-2,
4.032000e+0,2.00e-2,
4.034000e+0,4.00e-2,
4.036000e+0,4.00e-2,
4.038000e+0,2.00e-2,
4.040000e+0,2.00e-2,
4.042000e+0,4.00e-2,
4.044000e+0,4.00e-2,
4.046000e+0,4.00e-2,
4.048000e+0,4.00e-2,
4.050000e+0,4.00e-2,
4.052000e+0,4.00e-2,
4.054000e+0,4.00e-2,
4.056000e+0,4.00e-2,
4.058000e+0,2.00e-2,
4.060000e+0,2.00e-2,
4.062000e+0,2.00e-2,
4.064000e+0,2.00e-2,
4.066000e+0,4.00e-2,
4.068000e+0,4.00e-2,
4.070000e+0,2.00e-2,
4.072000e+0,2.00e-2,
4.074000e+0,4.00e-2,
4.076000e+0,4.00e-2,
4.078000e+0,4.00e-2,
4.080000e+0,4.00e-2,
4.082000e+0,4.00e-2,
4.084000e+0,4.00e-2,
4.086000e+0,4.00e-2,
4.088000e+0,4.00e-2,
4.090000e+0,4.00e-2,
4.092000e+0,4.00e-2,
4.094000e+0,2.00e-2,
4.096000e+0,2.00e-2,
4.098000e+0,2.00e-2,
4.100000e+0,2.00e-2,
4.102000e+0,2.00e-2,
4.104000e+0,2.00e-2,
4.106000e+0,2.00e-2,
4.108000e+0,2.00e-2,
4.110000e+0,0.00e+0,
4.112000e+0,0.00e+0,
4.114000e+0,4.00e-2,
4.116000e+0,4.00e-2,
4.118000e+0,2.00e-2,
4.120000e+0,2.00e-2,
4.122000e+0,2.00e-2,
4.124000e+0,2.00e-2,
4.126000e+0,2.00e-2,
4.128000e+0,2.00e-2,
4.130000e+0,2.00e-2,
4.132000e+0,2.00e-2,
4.134000e+0,4.00e-2,
4.136000e+0,4.00e-2,
4.138000e+0,4.00e-2,
4.140000e+0,4.00e-2,
4.142000e+0,2.00e-2,
4.144000e+0,2.00e-2,
4.146000e+0,4.00e-2,
4.148000e+0,4.00e-2,
4.150000e+0,2.00e-2,
4.152000e+0,2.00e-2,
4.154000e+0,2.00e-2,
4.156000e+0,2.00e-2,
4.158000e+0,2.00e-2,
4.160000e+0,2.00e-2,
4.162000e+0,2.00e-2,
4.164000e+0,2.00e-2,
4.166000e+0,2.00e-2,
4.168000e+0,2.00e-2,
4.170000e+0,2.00e-2,
4.172000e+0,2.00e-2,
4.174000e+0,2.00e-2,
4.176000e+0,2.00e-2,
4.178000e+0,2.00e-2,
4.180000e+0,2.00e-2,
4.182000e+0,2.00e-2,
4.184000e+0,2.00e-2,
4.186000e+0,2.00e-2,
4.188000e+0,2.00e-2,
4.190000e+0,2.00e-2,
4.192000e+0,2.00e-2,
4.194000e+0,2.00e-2,
4.196000e+0,2.00e-2,
4.198000e+0,2.00e-2,
4.200000e+0,2.00e-2,
4.202000e+0,2.00e-2,
4.204000e+0,2.00e-2,
4.206000e+0,2.00e-2,
4.208000e+0,2.00e-2,
4.210000e+0,4.00e-2,
4.212000e+0,4.00e-2,
4.214000e+0,2.00e-2,
4.216000e+0,2.00e-2,
4.218000e+0,2.00e-2,
4.220000e+0,2.00e-2,
4.222000e+0,2.00e-2,
4.224000e+0,2.00e-2,
4.226000e+0,2.00e-2,
4.228000e+0,2.00e-2,
4.230000e+0,4.00e-2,
4.232000e+0,4.00e-2,
4.234000e+0,4.00e-2,
4.236000e+0,4.00e-2,
4.238000e+0,0.00e+0,
4.240000e+0,0.00e+0,
4.242000e+0,2.00e-2,
4.244000e+0,2.00e-2,
4.246000e+0,4.00e-2,
4.248000e+0,4.00e-2,
4.250000e+0,2.00e-2,
4.252000e+0,2.00e-2,
4.254000e+0,2.00e-2,
4.256000e+0,2.00e-2,
4.258000e+0,4.00e-2,
4.260000e+0,4.00e-2,
4.262000e+0,4.00e-2,
4.264000e+0,4.00e-2,
4.266000e+0,2.00e-2,
4.268000e+0,2.00e-2,
4.270000e+0,4.00e-2,
4.272000e+0,4.00e-2,
4.274000e+0,0.00e+0,
4.276000e+0,0.00e+0,
4.278000e+0,2.00e-2,
4.280000e+0,2.00e-2,
4.282000e+0,4.00e-2,
4.284000e+0,4.00e-2,
4.286000e+0,2.00e-2,
4.288000e+0,2.00e-2,
4.290000e+0,2.00e-2,
4.292000e+0,2.00e-2,
4.294000e+0,4.00e-2,
4.296000e+0,4.00e-2,
4.298000e+0,2.00e-2,
4.300000e+0,2.00e-2,
4.302000e+0,2.00e-2,
4.304000e+0,2.00e-2,
4.306000e+0,2.00e-2,
4.308000e+0,2.00e-2,
4.310000e+0,2.00e-2,
4.312000e+0,2.00e-2,
4.314000e+0,2.00e-2,
4.316000e+0,2.00e-2,
4.318000e+0,2.00e-2,
4.320000e+0,2.00e-2,
4.322000e+0,2.00e-2,
4.324000e+0,2.00e-2,
4.326000e+0,2.00e-2,
4.328000e+0,2.00e-2,
4.330000e+0,2.00e-2,
4.332000e+0,2.00e-2,
4.334000e+0,2.00e-2,
4.336000e+0,2.00e-2,
4.338000e+0,2.00e-2,
4.340000e+0,2.00e-2,
4.342000e+0,2.00e-2,
4.344000e+0,2.00e-2,
4.346000e+0,2.00e-2,
4.348000e+0,2.00e-2,
4.350000e+0,2.00e-2,
4.352000e+0,2.00e-2,
4.354000e+0,2.00e-2,
4.356000e+0,2.00e-2,
4.358000e+0,4.00e-2,
4.360000e+0,4.00e-2,
4.362000e+0,2.00e-2,
4.364000e+0,2.00e-2,
4.366000e+0,4.00e-2,
4.368000e+0,4.00e-2,
4.370000e+0,2.00e-2,
4.372000e+0,2.00e-2,
4.374000e+0,2.00e-2,
4.376000e+0,2.00e-2,
4.378000e+0,2.00e-2,
4.380000e+0,2.00e-2,
4.382000e+0,2.00e-2,
4.384000e+0,2.00e-2,
4.386000e+0,2.00e-2,
4.388000e+0,2.00e-2,
4.390000e+0,2.00e-2,
4.392000e+0,2.00e-2,
4.394000e+0,2.00e-2,
4.396000e+0,2.00e-2,
4.398000e+0,4.00e-2,
4.400000e+0,4.00e-2,
4.402000e+0,4.00e-2,
4.404000e+0,4.00e-2,
4.406000e+0,4.00e-2,
4.408000e+0,4.00e-2,
4.410000e+0,2.00e-2,
4.412000e+0,2.00e-2,
4.414000e+0,4.00e-2,
4.416000e+0,4.00e-2,
4.418000e+0,2.00e-2,
4.420000e+0,2.00e-2,
4.422000e+0,2.00e-2,
4.424000e+0,2.00e-2,
4.426000e+0,2.00e-2,
4.428000e+0,2.00e-2,
4.430000e+0,2.00e-2,
4.432000e+0,2.00e-2,
4.434000e+0,4.00e-2,
4.436000e+0,4.00e-2,
4.438000e+0,4.00e-2,
4.440000e+0,4.00e-2,
4.442000e+0,2.00e-2,
4.444000e+0,2.00e-2,
4.446000e+0,2.00e-2,
4.448000e+0,2.00e-2,
4.450000e+0,2.00e-2,
4.452000e+0,2.00e-2,
4.454000e+0,2.00e-2,
4.456000e+0,2.00e-2,
4.458000e+0,2.00e-2,
4.460000e+0,2.00e-2,
4.462000e+0,4.00e-2,
4.464000e+0,4.00e-2,
4.466000e+0,0.00e+0,
4.468000e+0,0.00e+0,
4.470000e+0,2.00e-2,
4.472000e+0,2.00e-2,
4.474000e+0,2.00e-2,
4.476000e+0,2.00e-2,
4.478000e+0,0.00e+0,
4.480000e+0,0.00e+0,
4.482000e+0,2.00e-2,
4.484000e+0,2.00e-2,
4.486000e+0,2.00e-2,
4.488000e+0,2.00e-2,
4.490000e+0,4.00e-2,
4.492000e+0,4.00e-2,
4.494000e+0,4.00e-2,
4.496000e+0,4.00e-2,
4.498000e+0,4.00e-2,
4.500000e+0,4.00e-2,
4.502000e+0,2.00e-2,
4.504000e+0,2.00e-2,
4.506000e+0,2.00e-2,
4.508000e+0,2.00e-2,
4.510000e+0,2.00e-2,
4.512000e+0,2.00e-2,
4.514000e+0,4.00e-2,
4.516000e+0,4.00e-2,
4.518000e+0,0.00e+0,
4.520000e+0,0.00e+0,
4.522000e+0,2.00e-2,
4.524000e+0,2.00e-2,
4.526000e+0,2.00e-2,
4.528000e+0,2.00e-2,
4.530000e+0,0.00e+0,
4.532000e+0,0.00e+0,
4.534000e+0,2.00e-2,
4.536000e+0,2.00e-2,
4.538000e+0,2.00e-2,
4.540000e+0,2.00e-2,
4.542000e+0,4.00e-2,
4.544000e+0,4.00e-2,
4.546000e+0,2.00e-2,
4.548000e+0,2.00e-2,
4.550000e+0,4.00e-2,
4.552000e+0,4.00e-2,
4.554000e+0,4.00e-2,
4.556000e+0,4.00e-2,
4.558000e+0,2.00e-2,
4.560000e+0,2.00e-2,
4.562000e+0,2.00e-2,
4.564000e+0,2.00e-2,
4.566000e+0,2.00e-2,
4.568000e+0,2.00e-2,
4.570000e+0,2.00e-2,
4.572000e+0,2.00e-2,
4.574000e+0,2.00e-2,
4.576000e+0,2.00e-2,
4.578000e+0,4.00e-2,
4.580000e+0,4.00e-2,
4.582000e+0,2.00e-2,
4.584000e+0,2.00e-2,
4.586000e+0,4.00e-2,
4.588000e+0,4.00e-2,
4.590000e+0,2.00e-2,
4.592000e+0,2.00e-2,
4.594000e+0,2.00e-2,
4.596000e+0,2.00e-2,
4.598000e+0,2.00e-2,
4.600000e+0,2.00e-2,
4.602000e+0,4.00e-2,
4.604000e+0,4.00e-2,
4.606000e+0,4.00e-2,
4.608000e+0,4.00e-2,
4.610000e+0,2.00e-2,
4.612000e+0,2.00e-2,
4.614000e+0,4.00e-2,
4.616000e+0,4.00e-2,
4.618000e+0,4.00e-2,
4.620000e+0,4.00e-2,
4.622000e+0,4.00e-2,
4.624000e+0,4.00e-2,
4.626000e+0,4.00e-2,
4.628000e+0,4.00e-2,
4.630000e+0,2.00e-2,
4.632000e+0,2.00e-2,
4.634000e+0,2.00e-2,
4.636000e+0,2.00e-2,
4.638000e+0,4.00e-2,
4.640000e+0,4.00e-2,
4.642000e+0,4.00e-2,
4.644000e+0,4.00e-2,
4.646000e+0,0.00e+0,
4.648000e+0,0.00e+0,
4.650000e+0,4.00e-2,
4.652000e+0,4.00e-2,
4.654000e+0,4.00e-2,
4.656000e+0,4.00e-2,
4.658000e+0,4.00e-2,
4.660000e+0,4.00e-2,
4.662000e+0,4.00e-2,
4.664000e+0,4.00e-2,
4.666000e+0,2.00e-2,
4.668000e+0,2.00e-2,
4.670000e+0,2.00e-2,
4.672000e+0,2.00e-2,
4.674000e+0,4.00e-2,
4.676000e+0,4.00e-2,
4.678000e+0,2.00e-2,
4.680000e+0,2.00e-2,
4.682000e+0,2.00e-2,
4.684000e+0,2.00e-2,
4.686000e+0,2.00e-2,
4.688000e+0,2.00e-2,
4.690000e+0,2.00e-2,
4.692000e+0,2.00e-2,
4.694000e+0,2.00e-2,
4.696000e+0,2.00e-2,
4.698000e+0,4.00e-2,
4.700000e+0,4.00e-2,
4.702000e+0,4.00e-2,
4.704000e+0,4.00e-2,
4.706000e+0,4.00e-2,
4.708000e+0,4.00e-2,
4.710000e+0,2.00e-2,
4.712000e+0,2.00e-2,
4.714000e+0,4.00e-2,
4.716000e+0,4.00e-2,
4.718000e+0,2.00e-2,
4.720000e+0,2.00e-2,
4.722000e+0,4.00e-2,
4.724000e+0,4.00e-2,
4.726000e+0,4.00e-2,
4.728000e+0,4.00e-2,
4.730000e+0,4.00e-2,
4.732000e+0,4.00e-2,
4.734000e+0,4.00e-2,
4.736000e+0,4.00e-2,
4.738000e+0,4.00e-2,
4.740000e+0,4.00e-2,
4.742000e+0,4.00e-2,
4.744000e+0,4.00e-2,
4.746000e+0,4.00e-2,
4.748000e+0,4.00e-2,
4.750000e+0,2.00e-2,
4.752000e+0,2.00e-2,
4.754000e+0,4.00e-2,
4.756000e+0,4.00e-2,
4.758000e+0,2.00e-2,
4.760000e+0,2.00e-2,
4.762000e+0,2.00e-2,
4.764000e+0,2.00e-2,
4.766000e+0,2.00e-2,
4.768000e+0,2.00e-2,
4.770000e+0,4.00e-2,
4.772000e+0,4.00e-2,
4.774000e+0,2.00e-2,
4.776000e+0,2.00e-2,
4.778000e+0,4.00e-2,
4.780000e+0,4.00e-2,
4.782000e+0,2.00e-2,
4.784000e+0,2.00e-2,
4.786000e+0,2.00e-2,
4.788000e+0,2.00e-2,
4.790000e+0,4.00e-2,
4.792000e+0,4.00e-2,
4.794000e+0,2.00e-2,
4.796000e+0,2.00e-2,
4.798000e+0,4.00e-2,
4.800000e+0,4.00e-2,
4.802000e+0,2.00e-2,
4.804000e+0,2.00e-2,
4.806000e+0,2.00e-2,
4.808000e+0,2.00e-2,
4.810000e+0,4.00e-2,
4.812000e+0,4.00e-2,
4.814000e+0,4.00e-2,
4.816000e+0,4.00e-2,
4.818000e+0,2.00e-2,
4.820000e+0,2.00e-2,
4.822000e+0,4.00e-2,
4.824000e+0,4.00e-2,
4.826000e+0,2.00e-2,
4.828000e+0,2.00e-2,
4.830000e+0,2.00e-2,
4.832000e+0,2.00e-2,
4.834000e+0,6.00e-2,
4.836000e+0,6.00e-2,
4.838000e+0,2.00e-2,
4.840000e+0,2.00e-2,
4.842000e+0,4.00e-2,
4.844000e+0,4.00e-2,
4.846000e+0,4.00e-2,
4.848000e+0,4.00e-2,
4.850000e+0,4.00e-2,
4.852000e+0,4.00e-2,
4.854000e+0,4.00e-2,
4.856000e+0,4.00e-2,
4.858000e+0,2.00e-2,
4.860000e+0,2.00e-2,
4.862000e+0,2.00e-2,
4.864000e+0,2.00e-2,
4.866000e+0,2.00e-2,
4.868000e+0,2.00e-2,
4.870000e+0,4.00e-2,
4.872000e+0,4.00e-2,
4.874000e+0,2.00e-2,
4.876000e+0,2.00e-2,
4.878000e+0,2.00e-2,
4.880000e+0,2.00e-2,
4.882000e+0,2.00e-2,
4.884000e+0,2.00e-2,
4.886000e+0,6.00e-2,
4.888000e+0,6.00e-2,
4.890000e+0,4.00e-2,
4.892000e+0,4.00e-2,
4.894000e+0,2.00e-2,
4.896000e+0,2.00e-2,
4.898000e+0,4.00e-2,
4.900000e+0,4.00e-2,
4.902000e+0,4.00e-2,
4.904000e+0,4.00e-2,
4.906000e+0,0.00e+0,
4.908000e+0,0.00e+0,
4.910000e+0,4.00e-2,
4.912000e+0,4.00e-2,
4.914000e+0,4.00e-2,
4.916000e+0,4.00e-2,
4.918000e+0,4.00e-2,
4.920000e+0,4.00e-2,
4.922000e+0,2.00e-2,
4.924000e+0,2.00e-2,
4.926000e+0,4.00e-2,
4.928000e+0,4.00e-2,
4.930000e+0,4.00e-2,
4.932000e+0,4.00e-2,
4.934000e+0,4.00e-2,
4.936000e+0,4.00e-2,
4.938000e+0,4.00e-2,
4.940000e+0,4.00e-2,
4.942000e+0,4.00e-2,
4.944000e+0,4.00e-2,
4.946000e+0,4.00e-2,
4.948000e+0,4.00e-2,
4.950000e+0,4.00e-2,
4.952000e+0,4.00e-2,
4.954000e+0,2.00e-2,
4.956000e+0,2.00e-2,
4.958000e+0,4.00e-2,
4.960000e+0,4.00e-2,
4.962000e+0,6.00e-2,
4.964000e+0,6.00e-2,
4.966000e+0,4.00e-2,
4.968000e+0,4.00e-2,
4.970000e+0,2.00e-2,
4.972000e+0,2.00e-2,
4.974000e+0,2.00e-2,
4.976000e+0,2.00e-2,
4.978000e+0,4.00e-2,
4.980000e+0,4.00e-2,
4.982000e+0,2.00e-2,
4.984000e+0,2.00e-2,
4.986000e+0,4.00e-2,
4.988000e+0,4.00e-2,
4.990000e+0,4.00e-2,
4.992000e+0,4.00e-2,
4.994000e+0,4.00e-2,
4.996000e+0,4.00e-2,
4.998000e+0,4.00e-2,
5.000000e+0,4.00e-2,
5.002000e+0,2.00e-2,
5.004000e+0,2.00e-2,
5.006000e+0,4.00e-2,
5.008000e+0,4.00e-2,
5.010000e+0,4.00e-2,
5.012000e+0,4.00e-2,
5.014000e+0,4.00e-2,
5.016000e+0,4.00e-2,
5.018000e+0,4.00e-2,
5.020000e+0,4.00e-2,
5.022000e+0,4.00e-2,
5.024000e+0,4.00e-2,
5.026000e+0,4.00e-2,
5.028000e+0,4.00e-2,
5.030000e+0,2.00e-2,
5.032000e+0,2.00e-2,
5.034000e+0,4.00e-2,
5.036000e+0,4.00e-2,
5.038000e+0,4.00e-2,
5.040000e+0,4.00e-2,
5.042000e+0,4.00e-2,
5.044000e+0,4.00e-2,
5.046000e+0,4.00e-2,
5.048000e+0,4.00e-2,
5.050000e+0,2.00e-2,
5.052000e+0,2.00e-2,
5.054000e+0,4.00e-2,
5.056000e+0,4.00e-2,
5.058000e+0,2.00e-2,
5.060000e+0,2.00e-2,
5.062000e+0,4.00e-2,
5.064000e+0,4.00e-2,
5.066000e+0,4.00e-2,
5.068000e+0,4.00e-2,
5.070000e+0,4.00e-2,
5.072000e+0,4.00e-2,
5.074000e+0,4.00e-2,
5.076000e+0,4.00e-2,
5.078000e+0,4.00e-2,
5.080000e+0,4.00e-2,
5.082000e+0,4.00e-2,
5.084000e+0,4.00e-2,
5.086000e+0,2.00e-2,
5.088000e+0,2.00e-2,
5.090000e+0,2.00e-2,
5.092000e+0,2.00e-2,
5.094000e+0,4.00e-2,
5.096000e+0,4.00e-2,
5.098000e+0,4.00e-2,
5.100000e+0,4.00e-2,
5.102000e+0,4.00e-2,
5.104000e+0,4.00e-2,
5.106000e+0,6.00e-2,
5.108000e+0,6.00e-2,
5.110000e+0,6.00e-2,
5.112000e+0,6.00e-2,
5.114000e+0,4.00e-2,
5.116000e+0,4.00e-2,
5.118000e+0,6.00e-2,
5.120000e+0,6.00e-2,
5.122000e+0,4.00e-2,
5.124000e+0,4.00e-2,
5.126000e+0,6.00e-2,
5.128000e+0,6.00e-2,
5.130000e+0,6.00e-2,
5.132000e+0,6.00e-2,
5.134000e+0,4.00e-2,
5.136000e+0,4.00e-2,
5.138000e+0,6.00e-2,
5.140000e+0,6.00e-2,
5.142000e+0,4.00e-2,
5.144000e+0,4.00e-2,
5.146000e+0,4.00e-2,
5.148000e+0,4.00e-2,
5.150000e+0,6.00e-2,
5.152000e+0,6.00e-2,
5.154000e+0,4.00e-2,
5.156000e+0,4.00e-2,
5.158000e+0,6.00e-2,
5.160000e+0,6.00e-2,
5.162000e+0,8.00e-2,
5.164000e+0,8.00e-2,
5.166000e+0,4.00e-2,
5.168000e+0,4.00e-2,
5.170000e+0,4.00e-2,
5.172000e+0,4.00e-2,
5.174000e+0,4.00e-2,
5.176000e+0,4.00e-2,
5.178000e+0,6.00e-2,
5.180000e+0,6.00e-2,
5.182000e+0,4.00e-2,
5.184000e+0,4.00e-2,
5.186000e+0,6.00e-2,
5.188000e+0,6.00e-2,
5.190000e+0,4.00e-2,
5.192000e+0,4.00e-2,
5.194000e+0,4.00e-2,
5.196000e+0,4.00e-2,
5.198000e+0,6.00e-2,
5.200000e+0,6.00e-2,
5.202000e+0,4.00e-2,
5.204000e+0,4.00e-2,
5.206000e+0,4.00e-2,
5.208000e+0,4.00e-2,
5.210000e+0,4.00e-2,
5.212000e+0,4.00e-2,
5.214000e+0,8.00e-2,
5.216000e+0,8.00e-2,
5.218000e+0,8.00e-2,
5.220000e+0,8.00e-2,
5.222000e+0,8.00e-2,
5.224000e+0,8.00e-2,
5.226000e+0,4.00e-2,
5.228000e+0,4.00e-2,
5.230000e+0,6.00e-2,
5.232000e+0,6.00e-2,
5.234000e+0,6.00e-2,
5.236000e+0,6.00e-2,
5.238000e+0,6.00e-2,
5.240000e+0,6.00e-2,
5.242000e+0,8.00e-2,
5.244000e+0,8.00e-2,
5.246000e+0,4.00e-2,
5.248000e+0,4.00e-2,
5.250000e+0,6.00e-2,
5.252000e+0,6.00e-2,
5.254000e+0,6.00e-2,
5.256000e+0,6.00e-2,
5.258000e+0,8.00e-2,
5.260000e+0,8.00e-2,
5.262000e+0,4.00e-2,
5.264000e+0,4.00e-2,
5.266000e+0,6.00e-2,
5.268000e+0,6.00e-2,
5.270000e+0,6.00e-2,
5.272000e+0,6.00e-2,
5.274000e+0,6.00e-2,
5.276000e+0,6.00e-2,
5.278000e+0,8.00e-2,
