Memory Length,4000,
Trigger Level,2.56900e+00,
Source,CH2,
Probe,1.0X,
Vertical Units,V,
Vertical Scale,5.00000e-02,
Vertical Position,-3.44000e-01,
Horizontal Units,S,
Horizontal Scale,2.50000e-01,
Horizontal Position,7.2300000e+00,
Horizontal Mode,Main,
Sampling Period,1.00000e-03,
Firmware,V1.14,
Time, ,
Mode,Detail,
Waveform Data,
5.230000e+0,4.32e-1,
5.231000e+0,4.32e-1,
5.232000e+0,4.32e-1,
5.233000e+0,4.34e-1,
5.234000e+0,4.34e-1,
5.235000e+0,4.34e-1,
5.236000e+0,4.34e-1,
5.237000e+0,4.32e-1,
5.238000e+0,4.32e-1,
5.239000e+0,4.32e-1,
5.240000e+0,4.32e-1,
5.241000e+0,4.32e-1,
5.242000e+0,4.32e-1,
5.243000e+0,4.32e-1,
5.244000e+0,4.32e-1,
5.245000e+0,4.32e-1,
5.246000e+0,4.32e-1,
5.247000e+0,4.30e-1,
5.248000e+0,4.30e-1,
5.249000e+0,4.32e-1,
5.250000e+0,4.32e-1,
5.251000e+0,4.34e-1,
5.252000e+0,4.34e-1,
5.253000e+0,4.34e-1,
5.254000e+0,4.34e-1,
5.255000e+0,4.28e-1,
5.256000e+0,4.28e-1,
5.257000e+0,4.30e-1,
5.258000e+0,4.30e-1,
5.259000e+0,4.28e-1,
5.260000e+0,4.28e-1,
5.261000e+0,4.28e-1,
5.262000e+0,4.28e-1,
5.263000e+0,4.28e-1,
5.264000e+0,4.28e-1,
5.265000e+0,4.24e-1,
5.266000e+0,4.24e-1,
5.267000e+0,4.26e-1,
5.268000e+0,4.26e-1,
5.269000e+0,4.24e-1,
5.270000e+0,4.24e-1,
5.271000e+0,4.22e-1,
5.272000e+0,4.22e-1,
5.273000e+0,4.20e-1,
5.274000e+0,4.20e-1,
5.275000e+0,4.20e-1,
5.276000e+0,4.20e-1,
5.277000e+0,4.18e-1,
5.278000e+0,4.18e-1,
5.279000e+0,4.14e-1,
5.280000e+0,4.14e-1,
5.281000e+0,4.12e-1,
5.282000e+0,4.12e-1,
5.283000e+0,4.12e-1,
5.284000e+0,4.12e-1,
5.285000e+0,4.10e-1,
5.286000e+0,4.10e-1,
5.287000e+0,4.08e-1,
5.288000e+0,4.08e-1,
5.289000e+0,4.06e-1,
5.290000e+0,4.06e-1,
5.291000e+0,4.02e-1,
5.292000e+0,4.02e-1,
5.293000e+0,3.98e-1,
5.294000e+0,3.98e-1,
5.295000e+0,3.94e-1,
5.296000e+0,3.94e-1,
5.297000e+0,3.94e-1,
5.298000e+0,3.94e-1,
5.299000e+0,3.90e-1,
5.300000e+0,3.90e-1,
5.301000e+0,3.86e-1,
5.302000e+0,3.86e-1,
5.303000e+0,3.82e-1,
5.304000e+0,3.82e-1,
5.305000e+0,3.80e-1,
5.306000e+0,3.80e-1,
5.307000e+0,3.72e-1,
5.308000e+0,3.72e-1,
5.309000e+0,3.72e-1,
5.310000e+0,3.72e-1,
5.311000e+0,3.64e-1,
5.312000e+0,3.64e-1,
5.313000e+0,3.60e-1,
5.314000e+0,3.60e-1,
5.315000e+0,3.56e-1,
5.316000e+0,3.56e-1,
5.317000e+0,3.52e-1,
5.318000e+0,3.52e-1,
5.319000e+0,3.52e-1,
5.320000e+0,3.52e-1,
5.321000e+0,3.46e-1,
5.322000e+0,3.46e-1,
5.323000e+0,3.38e-1,
5.324000e+0,3.38e-1,
5.325000e+0,3.34e-1,
5.326000e+0,3.34e-1,
5.327000e+0,3.28e-1,
5.328000e+0,3.28e-1,
5.329000e+0,3.24e-1,
5.330000e+0,3.24e-1,
5.331000e+0,3.18e-1,
5.332000e+0,3.18e-1,
5.333000e+0,3.16e-1,
5.334000e+0,3.16e-1,
5.335000e+0,3.14e-1,
5.336000e+0,3.14e-1,
5.337000e+0,3.08e-1,
5.338000e+0,3.08e-1,
5.339000e+0,3.08e-1,
5.340000e+0,3.08e-1,
5.341000e+0,3.02e-1,
5.342000e+0,3.02e-1,
5.343000e+0,2.96e-1,
5.344000e+0,2.96e-1,
5.345000e+0,2.92e-1,
5.346000e+0,2.92e-1,
5.347000e+0,2.90e-1,
5.348000e+0,2.90e-1,
5.349000e+0,2.86e-1,
5.350000e+0,2.86e-1,
5.351000e+0,2.84e-1,
5.352000e+0,2.84e-1,
5.353000e+0,2.82e-1,
5.354000e+0,2.82e-1,
5.355000e+0,2.80e-1,
5.356000e+0,2.80e-1,
5.357000e+0,2.78e-1,
5.358000e+0,2.78e-1,
5.359000e+0,2.78e-1,
5.360000e+0,2.78e-1,
5.361000e+0,2.74e-1,
5.362000e+0,2.74e-1,
5.363000e+0,2.74e-1,
5.364000e+0,2.74e-1,
5.365000e+0,2.72e-1,
5.366000e+0,2.72e-1,
5.367000e+0,2.76e-1,
5.368000e+0,2.76e-1,
5.369000e+0,2.78e-1,
5.370000e+0,2.78e-1,
5.371000e+0,2.78e-1,
5.372000e+0,2.78e-1,
5.373000e+0,2.74e-1,
5.374000e+0,2.74e-1,
5.375000e+0,2.80e-1,
5.376000e+0,2.80e-1,
5.377000e+0,2.94e-1,
5.378000e+0,2.94e-1,
5.379000e+0,3.08e-1,
5.380000e+0,3.08e-1,
5.381000e+0,3.14e-1,
5.382000e+0,3.14e-1,
5.383000e+0,3.12e-1,
5.384000e+0,3.12e-1,
5.385000e+0,3.12e-1,
5.386000e+0,3.12e-1,
5.387000e+0,3.14e-1,
5.388000e+0,3.14e-1,
5.389000e+0,3.12e-1,
5.390000e+0,3.12e-1,
5.391000e+0,3.06e-1,
5.392000e+0,3.06e-1,
5.393000e+0,3.02e-1,
5.394000e+0,3.02e-1,
5.395000e+0,3.00e-1,
5.396000e+0,3.00e-1,
5.397000e+0,3.00e-1,
5.398000e+0,3.00e-1,
5.399000e+0,3.02e-1,
5.400000e+0,3.02e-1,
5.401000e+0,2.96e-1,
5.402000e+0,2.96e-1,
5.403000e+0,2.98e-1,
5.404000e+0,2.98e-1,
5.405000e+0,3.00e-1,
5.406000e+0,3.00e-1,
5.407000e+0,3.00e-1,
5.408000e+0,3.00e-1,
5.409000e+0,3.00e-1,
5.410000e+0,3.00e-1,
5.411000e+0,3.02e-1,
5.412000e+0,3.02e-1,
5.413000e+0,3.08e-1,
5.414000e+0,3.08e-1,
5.415000e+0,3.12e-1,
5.416000e+0,3.12e-1,
5.417000e+0,3.12e-1,
5.418000e+0,3.12e-1,
5.419000e+0,3.16e-1,
5.420000e+0,3.16e-1,
5.421000e+0,3.20e-1,
5.422000e+0,3.20e-1,
5.423000e+0,3.22e-1,
5.424000e+0,3.22e-1,
5.425000e+0,3.28e-1,
5.426000e+0,3.28e-1,
5.427000e+0,3.34e-1,
5.428000e+0,3.34e-1,
5.429000e+0,3.38e-1,
5.430000e+0,3.38e-1,
5.431000e+0,3.42e-1,
5.432000e+0,3.42e-1,
5.433000e+0,3.46e-1,
5.434000e+0,3.46e-1,
5.435000e+0,3.50e-1,
5.436000e+0,3.50e-1,
5.437000e+0,3.52e-1,
5.438000e+0,3.52e-1,
5.439000e+0,3.56e-1,
5.440000e+0,3.56e-1,
5.441000e+0,3.62e-1,
5.442000e+0,3.62e-1,
5.443000e+0,3.68e-1,
5.444000e+0,3.68e-1,
5.445000e+0,3.72e-1,
5.446000e+0,3.72e-1,
5.447000e+0,3.76e-1,
5.448000e+0,3.76e-1,
5.449000e+0,3.80e-1,
5.450000e+0,3.80e-1,
5.451000e+0,3.84e-1,
5.452000e+0,3.84e-1,
5.453000e+0,3.88e-1,
5.454000e+0,3.88e-1,
5.455000e+0,3.90e-1,
5.456000e+0,3.90e-1,
5.457000e+0,3.92e-1,
5.458000e+0,3.92e-1,
5.459000e+0,3.98e-1,
5.460000e+0,3.98e-1,
5.461000e+0,4.02e-1,
5.462000e+0,4.02e-1,
5.463000e+0,4.06e-1,
5.464000e+0,4.06e-1,
5.465000e+0,4.08e-1,
5.466000e+0,4.08e-1,
5.467000e+0,4.10e-1,
5.468000e+0,4.10e-1,
5.469000e+0,4.10e-1,
5.470000e+0,4.10e-1,
5.471000e+0,4.12e-1,
5.472000e+0,4.12e-1,
5.473000e+0,4.14e-1,
5.474000e+0,4.14e-1,
5.475000e+0,4.18e-1,
5.476000e+0,4.18e-1,
5.477000e+0,4.20e-1,
5.478000e+0,4.20e-1,
5.479000e+0,4.20e-1,
5.480000e+0,4.20e-1,
5.481000e+0,4.20e-1,
5.482000e+0,4.20e-1,
5.483000e+0,4.20e-1,
5.484000e+0,4.20e-1,
5.485000e+0,4.22e-1,
5.486000e+0,4.22e-1,
5.487000e+0,4.24e-1,
5.488000e+0,4.24e-1,
5.489000e+0,4.24e-1,
5.490000e+0,4.24e-1,
5.491000e+0,4.26e-1,
5.492000e+0,4.26e-1,
5.493000e+0,4.22e-1,
5.494000e+0,4.22e-1,
5.495000e+0,4.24e-1,
5.496000e+0,4.24e-1,
5.497000e+0,4.26e-1,
5.498000e+0,4.26e-1,
5.499000e+0,4.26e-1,
5.500000e+0,4.26e-1,
5.501000e+0,4.26e-1,
5.502000e+0,4.26e-1,
5.503000e+0,4.26e-1,
5.504000e+0,4.26e-1,
5.505000e+0,4.24e-1,
5.506000e+0,4.24e-1,
5.507000e+0,4.24e-1,
5.508000e+0,4.24e-1,
5.509000e+0,4.22e-1,
5.510000e+0,4.22e-1,
5.511000e+0,4.22e-1,
5.512000e+0,4.22e-1,
5.513000e+0,4.20e-1,
5.514000e+0,4.20e-1,
5.515000e+0,4.20e-1,
5.516000e+0,4.20e-1,
5.517000e+0,4.18e-1,
5.518000e+0,4.18e-1,
5.519000e+0,4.20e-1,
5.520000e+0,4.20e-1,
5.521000e+0,4.16e-1,
5.522000e+0,4.16e-1,
5.523000e+0,4.16e-1,
5.524000e+0,4.16e-1,
5.525000e+0,4.14e-1,
5.526000e+0,4.14e-1,
5.527000e+0,4.12e-1,
5.528000e+0,4.12e-1,
5.529000e+0,4.12e-1,
5.530000e+0,4.12e-1,
5.531000e+0,4.10e-1,
5.532000e+0,4.10e-1,
5.533000e+0,4.06e-1,
5.534000e+0,4.06e-1,
5.535000e+0,4.08e-1,
5.536000e+0,4.08e-1,
5.537000e+0,4.04e-1,
5.538000e+0,4.04e-1,
5.539000e+0,4.04e-1,
5.540000e+0,4.04e-1,
5.541000e+0,4.00e-1,
5.542000e+0,4.00e-1,
5.543000e+0,3.96e-1,
5.544000e+0,3.96e-1,
5.545000e+0,3.96e-1,
5.546000e+0,3.96e-1,
5.547000e+0,3.94e-1,
5.548000e+0,3.94e-1,
5.549000e+0,3.92e-1,
5.550000e+0,3.92e-1,
5.551000e+0,3.92e-1,
5.552000e+0,3.92e-1,
5.553000e+0,3.86e-1,
5.554000e+0,3.86e-1,
5.555000e+0,3.86e-1,
5.556000e+0,3.86e-1,
5.557000e+0,3.82e-1,
5.558000e+0,3.82e-1,
5.559000e+0,3.82e-1,
5.560000e+0,3.82e-1,
5.561000e+0,3.80e-1,
5.562000e+0,3.80e-1,
5.563000e+0,3.80e-1,
5.564000e+0,3.80e-1,
5.565000e+0,3.74e-1,
5.566000e+0,3.74e-1,
5.567000e+0,3.76e-1,
5.568000e+0,3.76e-1,
5.569000e+0,3.72e-1,
5.570000e+0,3.72e-1,
5.571000e+0,3.72e-1,
5.572000e+0,3.72e-1,
5.573000e+0,3.72e-1,
5.574000e+0,3.72e-1,
5.575000e+0,3.70e-1,
5.576000e+0,3.70e-1,
5.577000e+0,3.66e-1,
5.578000e+0,3.66e-1,
5.579000e+0,3.70e-1,
5.580000e+0,3.70e-1,
5.581000e+0,3.68e-1,
5.582000e+0,3.68e-1,
5.583000e+0,3.68e-1,
5.584000e+0,3.68e-1,
5.585000e+0,3.68e-1,
5.586000e+0,3.68e-1,
5.587000e+0,3.70e-1,
5.588000e+0,3.70e-1,
5.589000e+0,3.72e-1,
5.590000e+0,3.72e-1,
5.591000e+0,3.66e-1,
5.592000e+0,3.66e-1,
5.593000e+0,3.66e-1,
5.594000e+0,3.66e-1,
5.595000e+0,3.64e-1,
5.596000e+0,3.64e-1,
5.597000e+0,3.64e-1,
5.598000e+0,3.64e-1,
5.599000e+0,3.64e-1,
5.600000e+0,3.64e-1,
5.601000e+0,3.66e-1,
5.602000e+0,3.66e-1,
5.603000e+0,3.68e-1,
5.604000e+0,3.68e-1,
5.605000e+0,3.66e-1,
5.606000e+0,3.66e-1,
5.607000e+0,3.74e-1,
5.608000e+0,3.74e-1,
5.609000e+0,3.80e-1,
5.610000e+0,3.80e-1,
5.611000e+0,3.88e-1,
5.612000e+0,3.88e-1,
5.613000e+0,3.92e-1,
5.614000e+0,3.92e-1,
5.615000e+0,3.92e-1,
5.616000e+0,3.92e-1,
5.617000e+0,3.86e-1,
5.618000e+0,3.86e-1,
5.619000e+0,3.82e-1,
5.620000e+0,3.82e-1,
5.621000e+0,3.80e-1,
5.622000e+0,3.80e-1,
5.623000e+0,3.82e-1,
5.624000e+0,3.82e-1,
5.625000e+0,3.84e-1,
5.626000e+0,3.84e-1,
5.627000e+0,3.92e-1,
5.628000e+0,3.92e-1,
5.629000e+0,3.94e-1,
5.630000e+0,3.94e-1,
5.631000e+0,3.92e-1,
5.632000e+0,3.92e-1,
5.633000e+0,3.90e-1,
5.634000e+0,3.90e-1,
5.635000e+0,3.90e-1,
5.636000e+0,3.90e-1,
5.637000e+0,3.96e-1,
5.638000e+0,3.96e-1,
5.639000e+0,3.98e-1,
5.640000e+0,3.98e-1,
5.641000e+0,3.96e-1,
5.642000e+0,3.96e-1,
5.643000e+0,3.98e-1,
5.644000e+0,3.98e-1,
5.645000e+0,3.98e-1,
5.646000e+0,3.98e-1,
5.647000e+0,3.98e-1,
5.648000e+0,3.98e-1,
5.649000e+0,4.02e-1,
5.650000e+0,4.02e-1,
5.651000e+0,4.02e-1,
5.652000e+0,4.02e-1,
5.653000e+0,4.06e-1,
5.654000e+0,4.06e-1,
5.655000e+0,4.08e-1,
5.656000e+0,4.08e-1,
5.657000e+0,4.08e-1,
5.658000e+0,4.08e-1,
5.659000e+0,4.10e-1,
5.660000e+0,4.10e-1,
5.661000e+0,4.12e-1,
5.662000e+0,4.12e-1,
5.663000e+0,4.10e-1,
5.664000e+0,4.10e-1,
5.665000e+0,4.12e-1,
5.666000e+0,4.12e-1,
5.667000e+0,4.12e-1,
5.668000e+0,4.12e-1,
5.669000e+0,4.16e-1,
5.670000e+0,4.16e-1,
5.671000e+0,4.16e-1,
5.672000e+0,4.16e-1,
5.673000e+0,4.16e-1,
5.674000e+0,4.16e-1,
5.675000e+0,4.18e-1,
5.676000e+0,4.18e-1,
5.677000e+0,4.20e-1,
5.678000e+0,4.20e-1,
5.679000e+0,4.24e-1,
5.680000e+0,4.24e-1,
5.681000e+0,4.20e-1,
5.682000e+0,4.20e-1,
5.683000e+0,4.22e-1,
5.684000e+0,4.22e-1,
5.685000e+0,4.24e-1,
5.686000e+0,4.24e-1,
5.687000e+0,4.24e-1,
5.688000e+0,4.24e-1,
5.689000e+0,4.26e-1,
5.690000e+0,4.26e-1,
5.691000e+0,4.28e-1,
5.692000e+0,4.28e-1,
5.693000e+0,4.26e-1,
5.694000e+0,4.26e-1,
5.695000e+0,4.30e-1,
5.696000e+0,4.30e-1,
5.697000e+0,4.30e-1,
5.698000e+0,4.30e-1,
5.699000e+0,4.30e-1,
5.700000e+0,4.30e-1,
5.701000e+0,4.32e-1,
5.702000e+0,4.32e-1,
5.703000e+0,4.34e-1,
5.704000e+0,4.34e-1,
5.705000e+0,4.34e-1,
5.706000e+0,4.34e-1,
5.707000e+0,4.34e-1,
5.708000e+0,4.34e-1,
5.709000e+0,4.34e-1,
5.710000e+0,4.34e-1,
5.711000e+0,4.38e-1,
5.712000e+0,4.38e-1,
5.713000e+0,4.36e-1,
5.714000e+0,4.36e-1,
5.715000e+0,4.38e-1,
5.716000e+0,4.38e-1,
5.717000e+0,4.38e-1,
5.718000e+0,4.38e-1,
5.719000e+0,4.38e-1,
5.720000e+0,4.38e-1,
5.721000e+0,4.38e-1,
5.722000e+0,4.38e-1,
5.723000e+0,4.38e-1,
5.724000e+0,4.38e-1,
5.725000e+0,4.40e-1,
5.726000e+0,4.40e-1,
5.727000e+0,4.42e-1,
5.728000e+0,4.42e-1,
5.729000e+0,4.42e-1,
5.730000e+0,4.42e-1,
5.731000e+0,4.44e-1,
5.732000e+0,4.44e-1,
5.733000e+0,4.42e-1,
5.734000e+0,4.42e-1,
5.735000e+0,4.44e-1,
5.736000e+0,4.44e-1,
5.737000e+0,4.44e-1,
5.738000e+0,4.44e-1,
5.739000e+0,4.42e-1,
5.740000e+0,4.42e-1,
5.741000e+0,4.42e-1,
5.742000e+0,4.42e-1,
5.743000e+0,4.46e-1,
5.744000e+0,4.46e-1,
5.745000e+0,4.46e-1,
5.746000e+0,4.46e-1,
5.747000e+0,4.42e-1,
5.748000e+0,4.42e-1,
5.749000e+0,4.46e-1,
5.750000e+0,4.46e-1,
5.751000e+0,4.44e-1,
5.752000e+0,4.44e-1,
5.753000e+0,4.44e-1,
5.754000e+0,4.44e-1,
5.755000e+0,4.46e-1,
5.756000e+0,4.46e-1,
5.757000e+0,4.46e-1,
5.758000e+0,4.46e-1,
5.759000e+0,4.44e-1,
5.760000e+0,4.44e-1,
5.761000e+0,4.44e-1,
5.762000e+0,4.44e-1,
5.763000e+0,4.44e-1,
5.764000e+0,4.44e-1,
5.765000e+0,4.48e-1,
5.766000e+0,4.48e-1,
5.767000e+0,4.50e-1,
5.768000e+0,4.50e-1,
5.769000e+0,4.46e-1,
5.770000e+0,4.46e-1,
5.771000e+0,4.48e-1,
5.772000e+0,4.48e-1,
5.773000e+0,4.46e-1,
5.774000e+0,4.46e-1,
5.775000e+0,4.48e-1,
5.776000e+0,4.48e-1,
5.777000e+0,4.48e-1,
5.778000e+0,4.48e-1,
5.779000e+0,4.48e-1,
5.780000e+0,4.48e-1,
5.781000e+0,4.48e-1,
5.782000e+0,4.48e-1,
5.783000e+0,4.46e-1,
5.784000e+0,4.46e-1,
5.785000e+0,4.50e-1,
5.786000e+0,4.50e-1,
5.787000e+0,4.48e-1,
5.788000e+0,4.48e-1,
5.789000e+0,4.46e-1,
5.790000e+0,4.46e-1,
5.791000e+0,4.48e-1,
5.792000e+0,4.48e-1,
5.793000e+0,4.48e-1,
5.794000e+0,4.48e-1,
5.795000e+0,4.46e-1,
5.796000e+0,4.46e-1,
5.797000e+0,4.50e-1,
5.798000e+0,4.50e-1,
5.799000e+0,4.46e-1,
5.800000e+0,4.46e-1,
5.801000e+0,4.48e-1,
5.802000e+0,4.48e-1,
5.803000e+0,4.46e-1,
5.804000e+0,4.46e-1,
5.805000e+0,4.48e-1,
5.806000e+0,4.48e-1,
5.807000e+0,4.48e-1,
5.808000e+0,4.48e-1,
5.809000e+0,4.48e-1,
5.810000e+0,4.48e-1,
5.811000e+0,4.46e-1,
5.812000e+0,4.46e-1,
5.813000e+0,4.46e-1,
5.814000e+0,4.46e-1,
5.815000e+0,4.48e-1,
5.816000e+0,4.48e-1,
5.817000e+0,4.48e-1,
5.818000e+0,4.48e-1,
5.819000e+0,4.48e-1,
5.820000e+0,4.48e-1,
5.821000e+0,4.50e-1,
5.822000e+0,4.50e-1,
5.823000e+0,4.48e-1,
5.824000e+0,4.48e-1,
5.825000e+0,4.48e-1,
5.826000e+0,4.48e-1,
5.827000e+0,4.46e-1,
5.828000e+0,4.46e-1,
5.829000e+0,4.48e-1,
5.830000e+0,4.48e-1,
5.831000e+0,4.48e-1,
5.832000e+0,4.48e-1,
5.833000e+0,4.46e-1,
5.834000e+0,4.46e-1,
5.835000e+0,4.46e-1,
5.836000e+0,4.46e-1,
5.837000e+0,4.50e-1,
5.838000e+0,4.50e-1,
5.839000e+0,4.48e-1,
5.840000e+0,4.48e-1,
5.841000e+0,4.50e-1,
5.842000e+0,4.50e-1,
5.843000e+0,4.50e-1,
5.844000e+0,4.50e-1,
5.845000e+0,4.50e-1,
5.846000e+0,4.50e-1,
5.847000e+0,4.50e-1,
5.848000e+0,4.50e-1,
5.849000e+0,4.50e-1,
5.850000e+0,4.50e-1,
5.851000e+0,4.48e-1,
5.852000e+0,4.48e-1,
5.853000e+0,4.50e-1,
5.854000e+0,4.50e-1,
5.855000e+0,4.50e-1,
5.856000e+0,4.50e-1,
5.857000e+0,4.50e-1,
5.858000e+0,4.50e-1,
5.859000e+0,4.50e-1,
5.860000e+0,4.50e-1,
5.861000e+0,4.48e-1,
5.862000e+0,4.48e-1,
5.863000e+0,4.50e-1,
5.864000e+0,4.50e-1,
5.865000e+0,4.52e-1,
5.866000e+0,4.52e-1,
5.867000e+0,4.50e-1,
5.868000e+0,4.50e-1,
5.869000e+0,4.50e-1,
5.870000e+0,4.50e-1,
5.871000e+0,4.50e-1,
5.872000e+0,4.50e-1,
5.873000e+0,4.48e-1,
5.874000e+0,4.48e-1,
5.875000e+0,4.52e-1,
5.876000e+0,4.52e-1,
5.877000e+0,4.52e-1,
5.878000e+0,4.52e-1,
5.879000e+0,4.50e-1,
5.880000e+0,4.50e-1,
5.881000e+0,4.52e-1,
5.882000e+0,4.52e-1,
5.883000e+0,4.48e-1,
5.884000e+0,4.48e-1,
5.885000e+0,4.52e-1,
5.886000e+0,4.52e-1,
5.887000e+0,4.50e-1,
5.888000e+0,4.50e-1,
5.889000e+0,4.50e-1,
5.890000e+0,4.50e-1,
5.891000e+0,4.52e-1,
5.892000e+0,4.52e-1,
5.893000e+0,4.52e-1,
5.894000e+0,4.52e-1,
5.895000e+0,4.50e-1,
5.896000e+0,4.50e-1,
5.897000e+0,4.50e-1,
5.898000e+0,4.50e-1,
5.899000e+0,4.50e-1,
5.900000e+0,4.50e-1,
5.901000e+0,4.50e-1,
5.902000e+0,4.50e-1,
5.903000e+0,4.50e-1,
5.904000e+0,4.50e-1,
5.905000e+0,4.50e-1,
5.906000e+0,4.50e-1,
5.907000e+0,4.52e-1,
5.908000e+0,4.52e-1,
5.909000e+0,4.50e-1,
5.910000e+0,4.50e-1,
5.911000e+0,4.50e-1,
5.912000e+0,4.50e-1,
5.913000e+0,4.52e-1,
5.914000e+0,4.52e-1,
5.915000e+0,4.50e-1,
5.916000e+0,4.50e-1,
5.917000e+0,4.52e-1,
5.918000e+0,4.52e-1,
5.919000e+0,4.52e-1,
5.920000e+0,4.52e-1,
5.921000e+0,4.50e-1,
5.922000e+0,4.50e-1,
5.923000e+0,4.50e-1,
5.924000e+0,4.50e-1,
5.925000e+0,4.50e-1,
5.926000e+0,4.50e-1,
5.927000e+0,4.52e-1,
5.928000e+0,4.52e-1,
5.929000e+0,4.50e-1,
5.930000e+0,4.50e-1,
5.931000e+0,4.52e-1,
5.932000e+0,4.52e-1,
5.933000e+0,4.52e-1,
5.934000e+0,4.52e-1,
5.935000e+0,4.52e-1,
5.936000e+0,4.52e-1,
5.937000e+0,4.52e-1,
5.938000e+0,4.52e-1,
5.939000e+0,4.52e-1,
5.940000e+0,4.52e-1,
5.941000e+0,4.52e-1,
5.942000e+0,4.52e-1,
5.943000e+0,4.52e-1,
5.944000e+0,4.52e-1,
5.945000e+0,4.52e-1,
5.946000e+0,4.52e-1,
5.947000e+0,4.52e-1,
5.948000e+0,4.52e-1,
5.949000e+0,4.52e-1,
5.950000e+0,4.52e-1,
5.951000e+0,4.52e-1,
5.952000e+0,4.52e-1,
5.953000e+0,4.54e-1,
5.954000e+0,4.54e-1,
5.955000e+0,4.54e-1,
5.956000e+0,4.54e-1,
5.957000e+0,4.52e-1,
5.958000e+0,4.52e-1,
5.959000e+0,4.52e-1,
5.960000e+0,4.52e-1,
5.961000e+0,4.50e-1,
5.962000e+0,4.50e-1,
5.963000e+0,4.52e-1,
5.964000e+0,4.52e-1,
5.965000e+0,4.52e-1,
5.966000e+0,4.52e-1,
5.967000e+0,4.52e-1,
5.968000e+0,4.52e-1,
5.969000e+0,4.52e-1,
5.970000e+0,4.52e-1,
5.971000e+0,4.54e-1,
5.972000e+0,4.54e-1,
5.973000e+0,4.54e-1,
5.974000e+0,4.54e-1,
5.975000e+0,4.52e-1,
5.976000e+0,4.52e-1,
5.977000e+0,4.52e-1,
5.978000e+0,4.52e-1,
5.979000e+0,4.52e-1,
5.980000e+0,4.52e-1,
5.981000e+0,4.52e-1,
5.982000e+0,4.52e-1,
5.983000e+0,4.54e-1,
5.984000e+0,4.54e-1,
5.985000e+0,4.54e-1,
5.986000e+0,4.54e-1,
5.987000e+0,4.54e-1,
5.988000e+0,4.54e-1,
5.989000e+0,4.54e-1,
5.990000e+0,4.54e-1,
5.991000e+0,4.52e-1,
5.992000e+0,4.52e-1,
5.993000e+0,4.54e-1,
5.994000e+0,4.54e-1,
5.995000e+0,4.54e-1,
5.996000e+0,4.54e-1,
5.997000e+0,4.52e-1,
5.998000e+0,4.52e-1,
5.999000e+0,4.52e-1,
6.000000e+0,4.52e-1,
6.001000e+0,4.56e-1,
6.002000e+0,4.56e-1,
6.003000e+0,4.52e-1,
6.004000e+0,4.52e-1,
6.005000e+0,4.52e-1,
6.006000e+0,4.52e-1,
6.007000e+0,4.52e-1,
6.008000e+0,4.52e-1,
6.009000e+0,4.54e-1,
6.010000e+0,4.54e-1,
6.011000e+0,4.54e-1,
6.012000e+0,4.54e-1,
6.013000e+0,4.54e-1,
6.014000e+0,4.54e-1,
6.015000e+0,4.52e-1,
6.016000e+0,4.52e-1,
6.017000e+0,4.54e-1,
6.018000e+0,4.54e-1,
6.019000e+0,4.54e-1,
6.020000e+0,4.54e-1,
6.021000e+0,4.52e-1,
6.022000e+0,4.52e-1,
6.023000e+0,4.54e-1,
6.024000e+0,4.54e-1,
6.025000e+0,4.52e-1,
6.026000e+0,4.52e-1,
6.027000e+0,4.54e-1,
6.028000e+0,4.54e-1,
6.029000e+0,4.54e-1,
6.030000e+0,4.54e-1,
6.031000e+0,4.54e-1,
6.032000e+0,4.54e-1,
6.033000e+0,4.54e-1,
6.034000e+0,4.54e-1,
6.035000e+0,4.52e-1,
6.036000e+0,4.52e-1,
6.037000e+0,4.52e-1,
6.038000e+0,4.52e-1,
6.039000e+0,4.54e-1,
6.040000e+0,4.54e-1,
6.041000e+0,4.54e-1,
6.042000e+0,4.54e-1,
6.043000e+0,4.52e-1,
6.044000e+0,4.52e-1,
6.045000e+0,4.54e-1,
6.046000e+0,4.54e-1,
6.047000e+0,4.52e-1,
6.048000e+0,4.52e-1,
6.049000e+0,4.52e-1,
6.050000e+0,4.52e-1,
6.051000e+0,4.52e-1,
6.052000e+0,4.52e-1,
6.053000e+0,4.54e-1,
6.054000e+0,4.54e-1,
6.055000e+0,4.52e-1,
6.056000e+0,4.52e-1,
6.057000e+0,4.54e-1,
6.058000e+0,4.54e-1,
6.059000e+0,4.52e-1,
6.060000e+0,4.52e-1,
6.061000e+0,4.52e-1,
6.062000e+0,4.52e-1,
6.063000e+0,4.54e-1,
6.064000e+0,4.54e-1,
6.065000e+0,4.52e-1,
6.066000e+0,4.52e-1,
6.067000e+0,4.54e-1,
6.068000e+0,4.54e-1,
6.069000e+0,4.52e-1,
6.070000e+0,4.52e-1,
6.071000e+0,4.52e-1,
6.072000e+0,4.52e-1,
6.073000e+0,4.50e-1,
6.074000e+0,4.50e-1,
6.075000e+0,4.54e-1,
6.076000e+0,4.54e-1,
6.077000e+0,4.52e-1,
6.078000e+0,4.52e-1,
6.079000e+0,4.52e-1,
6.080000e+0,4.52e-1,
6.081000e+0,4.52e-1,
6.082000e+0,4.52e-1,
6.083000e+0,4.54e-1,
6.084000e+0,4.54e-1,
6.085000e+0,4.52e-1,
6.086000e+0,4.52e-1,
6.087000e+0,4.52e-1,
6.088000e+0,4.52e-1,
6.089000e+0,4.54e-1,
6.090000e+0,4.54e-1,
6.091000e+0,4.52e-1,
6.092000e+0,4.52e-1,
6.093000e+0,4.52e-1,
6.094000e+0,4.52e-1,
6.095000e+0,4.52e-1,
6.096000e+0,4.52e-1,
6.097000e+0,4.52e-1,
6.098000e+0,4.52e-1,
6.099000e+0,4.50e-1,
6.100000e+0,4.50e-1,
6.101000e+0,4.52e-1,
6.102000e+0,4.52e-1,
6.103000e+0,4.52e-1,
6.104000e+0,4.52e-1,
6.105000e+0,4.52e-1,
6.106000e+0,4.52e-1,
6.107000e+0,4.50e-1,
6.108000e+0,4.50e-1,
6.109000e+0,4.52e-1,
6.110000e+0,4.52e-1,
6.111000e+0,4.52e-1,
6.112000e+0,4.52e-1,
6.113000e+0,4.54e-1,
6.114000e+0,4.54e-1,
6.115000e+0,4.50e-1,
6.116000e+0,4.50e-1,
6.117000e+0,4.52e-1,
6.118000e+0,4.52e-1,
6.119000e+0,4.52e-1,
6.120000e+0,4.52e-1,
6.121000e+0,4.52e-1,
6.122000e+0,4.52e-1,
6.123000e+0,4.50e-1,
6.124000e+0,4.50e-1,
6.125000e+0,4.52e-1,
6.126000e+0,4.52e-1,
6.127000e+0,4.52e-1,
6.128000e+0,4.52e-1,
6.129000e+0,4.52e-1,
6.130000e+0,4.52e-1,
6.131000e+0,4.52e-1,
6.132000e+0,4.52e-1,
6.133000e+0,4.52e-1,
6.134000e+0,4.52e-1,
6.135000e+0,4.52e-1,
6.136000e+0,4.52e-1,
6.137000e+0,4.52e-1,
6.138000e+0,4.52e-1,
6.139000e+0,4.52e-1,
6.140000e+0,4.52e-1,
6.141000e+0,4.50e-1,
6.142000e+0,4.50e-1,
6.143000e+0,4.50e-1,
6.144000e+0,4.50e-1,
6.145000e+0,4.52e-1,
6.146000e+0,4.52e-1,
6.147000e+0,4.50e-1,
6.148000e+0,4.50e-1,
6.149000e+0,4.48e-1,
6.150000e+0,4.48e-1,
6.151000e+0,4.50e-1,
6.152000e+0,4.50e-1,
6.153000e+0,4.50e-1,
6.154000e+0,4.50e-1,
6.155000e+0,4.52e-1,
6.156000e+0,4.52e-1,
6.157000e+0,4.50e-1,
6.158000e+0,4.50e-1,
6.159000e+0,4.52e-1,
6.160000e+0,4.52e-1,
6.161000e+0,4.50e-1,
6.162000e+0,4.50e-1,
6.163000e+0,4.50e-1,
6.164000e+0,4.50e-1,
6.165000e+0,4.50e-1,
6.166000e+0,4.50e-1,
6.167000e+0,4.52e-1,
6.168000e+0,4.52e-1,
6.169000e+0,4.48e-1,
6.170000e+0,4.48e-1,
6.171000e+0,4.50e-1,
6.172000e+0,4.50e-1,
6.173000e+0,4.48e-1,
6.174000e+0,4.48e-1,
6.175000e+0,4.50e-1,
6.176000e+0,4.50e-1,
6.177000e+0,4.48e-1,
6.178000e+0,4.48e-1,
6.179000e+0,4.50e-1,
6.180000e+0,4.50e-1,
6.181000e+0,4.52e-1,
6.182000e+0,4.52e-1,
6.183000e+0,4.50e-1,
6.184000e+0,4.50e-1,
6.185000e+0,4.50e-1,
6.186000e+0,4.50e-1,
6.187000e+0,4.50e-1,
6.188000e+0,4.50e-1,
6.189000e+0,4.50e-1,
6.190000e+0,4.50e-1,
6.191000e+0,4.50e-1,
6.192000e+0,4.50e-1,
6.193000e+0,4.46e-1,
6.194000e+0,4.46e-1,
6.195000e+0,4.50e-1,
6.196000e+0,4.50e-1,
6.197000e+0,4.48e-1,
6.198000e+0,4.48e-1,
6.199000e+0,4.50e-1,
6.200000e+0,4.50e-1,
6.201000e+0,4.50e-1,
6.202000e+0,4.50e-1,
6.203000e+0,4.50e-1,
6.204000e+0,4.50e-1,
6.205000e+0,4.50e-1,
6.206000e+0,4.50e-1,
6.207000e+0,4.50e-1,
6.208000e+0,4.50e-1,
6.209000e+0,4.46e-1,
6.210000e+0,4.46e-1,
6.211000e+0,4.50e-1,
6.212000e+0,4.50e-1,
6.213000e+0,4.50e-1,
6.214000e+0,4.50e-1,
6.215000e+0,4.50e-1,
6.216000e+0,4.50e-1,
6.217000e+0,4.48e-1,
6.218000e+0,4.48e-1,
6.219000e+0,4.48e-1,
6.220000e+0,4.48e-1,
6.221000e+0,4.50e-1,
6.222000e+0,4.50e-1,
6.223000e+0,4.48e-1,
6.224000e+0,4.48e-1,
6.225000e+0,4.48e-1,
6.226000e+0,4.48e-1,
6.227000e+0,4.50e-1,
6.228000e+0,4.50e-1,
6.229000e+0,4.48e-1,
6.230000e+0,4.48e-1,
6.231000e+0,4.48e-1,
6.232000e+0,4.48e-1,
6.233000e+0,4.48e-1,
6.234000e+0,4.48e-1,
6.235000e+0,4.50e-1,
6.236000e+0,4.50e-1,
6.237000e+0,4.50e-1,
6.238000e+0,4.50e-1,
6.239000e+0,4.48e-1,
6.240000e+0,4.48e-1,
6.241000e+0,4.48e-1,
6.242000e+0,4.48e-1,
6.243000e+0,4.50e-1,
6.244000e+0,4.50e-1,
6.245000e+0,4.50e-1,
6.246000e+0,4.50e-1,
6.247000e+0,4.50e-1,
6.248000e+0,4.50e-1,
6.249000e+0,4.50e-1,
6.250000e+0,4.50e-1,
6.251000e+0,4.50e-1,
6.252000e+0,4.50e-1,
6.253000e+0,4.50e-1,
6.254000e+0,4.50e-1,
6.255000e+0,4.48e-1,
6.256000e+0,4.48e-1,
6.257000e+0,4.48e-1,
6.258000e+0,4.48e-1,
6.259000e+0,4.46e-1,
6.260000e+0,4.46e-1,
6.261000e+0,4.50e-1,
6.262000e+0,4.50e-1,
6.263000e+0,4.48e-1,
6.264000e+0,4.48e-1,
6.265000e+0,4.46e-1,
6.266000e+0,4.46e-1,
6.267000e+0,4.48e-1,
6.268000e+0,4.48e-1,
6.269000e+0,4.48e-1,
6.270000e+0,4.48e-1,
6.271000e+0,4.50e-1,
6.272000e+0,4.50e-1,
6.273000e+0,4.50e-1,
6.274000e+0,4.50e-1,
6.275000e+0,4.46e-1,
6.276000e+0,4.46e-1,
6.277000e+0,4.46e-1,
6.278000e+0,4.46e-1,
6.279000e+0,4.48e-1,
6.280000e+0,4.48e-1,
6.281000e+0,4.50e-1,
6.282000e+0,4.50e-1,
6.283000e+0,4.48e-1,
6.284000e+0,4.48e-1,
6.285000e+0,4.48e-1,
6.286000e+0,4.48e-1,
6.287000e+0,4.50e-1,
6.288000e+0,4.50e-1,
6.289000e+0,4.46e-1,
6.290000e+0,4.46e-1,
6.291000e+0,4.46e-1,
6.292000e+0,4.46e-1,
6.293000e+0,4.46e-1,
6.294000e+0,4.46e-1,
6.295000e+0,4.48e-1,
6.296000e+0,4.48e-1,
6.297000e+0,4.46e-1,
6.298000e+0,4.46e-1,
6.299000e+0,4.46e-1,
6.300000e+0,4.46e-1,
6.301000e+0,4.48e-1,
6.302000e+0,4.48e-1,
6.303000e+0,4.46e-1,
6.304000e+0,4.46e-1,
6.305000e+0,4.46e-1,
6.306000e+0,4.46e-1,
6.307000e+0,4.44e-1,
6.308000e+0,4.44e-1,
6.309000e+0,4.46e-1,
6.310000e+0,4.46e-1,
6.311000e+0,4.46e-1,
6.312000e+0,4.46e-1,
6.313000e+0,4.46e-1,
6.314000e+0,4.46e-1,
6.315000e+0,4.48e-1,
6.316000e+0,4.48e-1,
6.317000e+0,4.46e-1,
6.318000e+0,4.46e-1,
6.319000e+0,4.48e-1,
6.320000e+0,4.48e-1,
6.321000e+0,4.46e-1,
6.322000e+0,4.46e-1,
6.323000e+0,4.46e-1,
6.324000e+0,4.46e-1,
6.325000e+0,4.46e-1,
6.326000e+0,4.46e-1,
6.327000e+0,4.46e-1,
6.328000e+0,4.46e-1,
6.329000e+0,4.46e-1,
6.330000e+0,4.46e-1,
6.331000e+0,4.46e-1,
6.332000e+0,4.46e-1,
6.333000e+0,4.46e-1,
6.334000e+0,4.46e-1,
6.335000e+0,4.48e-1,
6.336000e+0,4.48e-1,
6.337000e+0,4.46e-1,
6.338000e+0,4.46e-1,
6.339000e+0,4.46e-1,
6.340000e+0,4.46e-1,
6.341000e+0,4.48e-1,
6.342000e+0,4.48e-1,
6.343000e+0,4.44e-1,
6.344000e+0,4.44e-1,
6.345000e+0,4.46e-1,
6.346000e+0,4.46e-1,
6.347000e+0,4.46e-1,
6.348000e+0,4.46e-1,
6.349000e+0,4.46e-1,
6.350000e+0,4.46e-1,
6.351000e+0,4.46e-1,
6.352000e+0,4.46e-1,
6.353000e+0,4.46e-1,
6.354000e+0,4.46e-1,
6.355000e+0,4.46e-1,
6.356000e+0,4.46e-1,
6.357000e+0,4.46e-1,
6.358000e+0,4.46e-1,
6.359000e+0,4.46e-1,
6.360000e+0,4.46e-1,
6.361000e+0,4.46e-1,
6.362000e+0,4.46e-1,
6.363000e+0,4.44e-1,
6.364000e+0,4.44e-1,
6.365000e+0,4.44e-1,
6.366000e+0,4.44e-1,
6.367000e+0,4.44e-1,
6.368000e+0,4.44e-1,
6.369000e+0,4.44e-1,
6.370000e+0,4.44e-1,
6.371000e+0,4.44e-1,
6.372000e+0,4.44e-1,
6.373000e+0,4.46e-1,
6.374000e+0,4.46e-1,
6.375000e+0,4.44e-1,
6.376000e+0,4.44e-1,
6.377000e+0,4.42e-1,
6.378000e+0,4.42e-1,
6.379000e+0,4.44e-1,
6.380000e+0,4.44e-1,
6.381000e+0,4.42e-1,
6.382000e+0,4.42e-1,
6.383000e+0,4.42e-1,
6.384000e+0,4.42e-1,
6.385000e+0,4.42e-1,
6.386000e+0,4.42e-1,
6.387000e+0,4.42e-1,
6.388000e+0,4.42e-1,
6.389000e+0,4.42e-1,
6.390000e+0,4.42e-1,
6.391000e+0,4.42e-1,
6.392000e+0,4.42e-1,
6.393000e+0,4.42e-1,
6.394000e+0,4.42e-1,
6.395000e+0,4.42e-1,
6.396000e+0,4.42e-1,
6.397000e+0,4.42e-1,
6.398000e+0,4.42e-1,
6.399000e+0,4.40e-1,
6.400000e+0,4.40e-1,
6.401000e+0,4.38e-1,
6.402000e+0,4.38e-1,
6.403000e+0,4.40e-1,
6.404000e+0,4.40e-1,
6.405000e+0,4.38e-1,
6.406000e+0,4.38e-1,
6.407000e+0,4.38e-1,
6.408000e+0,4.38e-1,
6.409000e+0,4.36e-1,
6.410000e+0,4.36e-1,
6.411000e+0,4.36e-1,
6.412000e+0,4.36e-1,
6.413000e+0,4.38e-1,
6.414000e+0,4.38e-1,
6.415000e+0,4.36e-1,
6.416000e+0,4.36e-1,
6.417000e+0,4.36e-1,
6.418000e+0,4.36e-1,
6.419000e+0,4.34e-1,
6.420000e+0,4.34e-1,
6.421000e+0,4.34e-1,
6.422000e+0,4.34e-1,
6.423000e+0,4.36e-1,
6.424000e+0,4.36e-1,
6.425000e+0,4.34e-1,
6.426000e+0,4.34e-1,
6.427000e+0,4.34e-1,
6.428000e+0,4.34e-1,
6.429000e+0,4.32e-1,
6.430000e+0,4.32e-1,
6.431000e+0,4.32e-1,
6.432000e+0,4.32e-1,
6.433000e+0,4.32e-1,
6.434000e+0,4.32e-1,
6.435000e+0,4.30e-1,
6.436000e+0,4.30e-1,
6.437000e+0,4.28e-1,
6.438000e+0,4.28e-1,
6.439000e+0,4.26e-1,
6.440000e+0,4.26e-1,
6.441000e+0,4.26e-1,
6.442000e+0,4.26e-1,
6.443000e+0,4.24e-1,
6.444000e+0,4.24e-1,
6.445000e+0,4.24e-1,
6.446000e+0,4.24e-1,
6.447000e+0,4.26e-1,
6.448000e+0,4.26e-1,
6.449000e+0,4.24e-1,
6.450000e+0,4.24e-1,
6.451000e+0,4.24e-1,
6.452000e+0,4.24e-1,
6.453000e+0,4.22e-1,
6.454000e+0,4.22e-1,
6.455000e+0,4.18e-1,
6.456000e+0,4.18e-1,
6.457000e+0,4.20e-1,
6.458000e+0,4.20e-1,
6.459000e+0,4.18e-1,
6.460000e+0,4.18e-1,
6.461000e+0,4.18e-1,
6.462000e+0,4.18e-1,
6.463000e+0,4.14e-1,
6.464000e+0,4.14e-1,
6.465000e+0,4.16e-1,
6.466000e+0,4.16e-1,
6.467000e+0,4.16e-1,
6.468000e+0,4.16e-1,
6.469000e+0,4.14e-1,
6.470000e+0,4.14e-1,
6.471000e+0,4.12e-1,
6.472000e+0,4.12e-1,
6.473000e+0,4.10e-1,
6.474000e+0,4.10e-1,
6.475000e+0,4.10e-1,
6.476000e+0,4.10e-1,
6.477000e+0,4.08e-1,
6.478000e+0,4.08e-1,
6.479000e+0,4.08e-1,
6.480000e+0,4.08e-1,
6.481000e+0,4.08e-1,
6.482000e+0,4.08e-1,
6.483000e+0,4.04e-1,
6.484000e+0,4.04e-1,
6.485000e+0,4.10e-1,
6.486000e+0,4.10e-1,
6.487000e+0,4.06e-1,
6.488000e+0,4.06e-1,
6.489000e+0,4.00e-1,
6.490000e+0,4.00e-1,
6.491000e+0,4.00e-1,
6.492000e+0,4.00e-1,
6.493000e+0,3.98e-1,
6.494000e+0,3.98e-1,
6.495000e+0,3.96e-1,
6.496000e+0,3.96e-1,
6.497000e+0,3.96e-1,
6.498000e+0,3.96e-1,
6.499000e+0,3.96e-1,
6.500000e+0,3.96e-1,
6.501000e+0,3.96e-1,
6.502000e+0,3.96e-1,
6.503000e+0,3.96e-1,
6.504000e+0,3.96e-1,
6.505000e+0,3.92e-1,
6.506000e+0,3.92e-1,
6.507000e+0,3.90e-1,
6.508000e+0,3.90e-1,
6.509000e+0,3.88e-1,
6.510000e+0,3.88e-1,
6.511000e+0,3.88e-1,
6.512000e+0,3.88e-1,
6.513000e+0,3.92e-1,
6.514000e+0,3.92e-1,
6.515000e+0,3.92e-1,
6.516000e+0,3.92e-1,
6.517000e+0,3.86e-1,
6.518000e+0,3.86e-1,
6.519000e+0,3.84e-1,
6.520000e+0,3.84e-1,
6.521000e+0,3.80e-1,
6.522000e+0,3.80e-1,
6.523000e+0,3.80e-1,
6.524000e+0,3.80e-1,
6.525000e+0,3.78e-1,
6.526000e+0,3.78e-1,
6.527000e+0,3.80e-1,
6.528000e+0,3.80e-1,
6.529000e+0,3.86e-1,
6.530000e+0,3.86e-1,
6.531000e+0,3.90e-1,
6.532000e+0,3.90e-1,
6.533000e+0,3.92e-1,
6.534000e+0,3.92e-1,
6.535000e+0,3.78e-1,
6.536000e+0,3.78e-1,
6.537000e+0,3.74e-1,
6.538000e+0,3.74e-1,
6.539000e+0,3.70e-1,
6.540000e+0,3.70e-1,
6.541000e+0,3.66e-1,
6.542000e+0,3.66e-1,
6.543000e+0,3.68e-1,
6.544000e+0,3.68e-1,
6.545000e+0,3.64e-1,
6.546000e+0,3.64e-1,
6.547000e+0,3.64e-1,
6.548000e+0,3.64e-1,
6.549000e+0,3.64e-1,
6.550000e+0,3.64e-1,
6.551000e+0,3.62e-1,
6.552000e+0,3.62e-1,
6.553000e+0,3.62e-1,
6.554000e+0,3.62e-1,
6.555000e+0,3.64e-1,
6.556000e+0,3.64e-1,
6.557000e+0,3.66e-1,
6.558000e+0,3.66e-1,
6.559000e+0,3.66e-1,
6.560000e+0,3.66e-1,
6.561000e+0,3.66e-1,
6.562000e+0,3.66e-1,
6.563000e+0,3.68e-1,
6.564000e+0,3.68e-1,
6.565000e+0,3.66e-1,
6.566000e+0,3.66e-1,
6.567000e+0,3.64e-1,
6.568000e+0,3.64e-1,
6.569000e+0,3.66e-1,
6.570000e+0,3.66e-1,
6.571000e+0,3.68e-1,
6.572000e+0,3.68e-1,
6.573000e+0,3.66e-1,
6.574000e+0,3.66e-1,
6.575000e+0,3.66e-1,
6.576000e+0,3.66e-1,
6.577000e+0,3.70e-1,
6.578000e+0,3.70e-1,
6.579000e+0,3.70e-1,
6.580000e+0,3.70e-1,
6.581000e+0,3.72e-1,
6.582000e+0,3.72e-1,
6.583000e+0,3.76e-1,
6.584000e+0,3.76e-1,
6.585000e+0,3.74e-1,
6.586000e+0,3.74e-1,
6.587000e+0,3.76e-1,
6.588000e+0,3.76e-1,
6.589000e+0,3.78e-1,
6.590000e+0,3.78e-1,
6.591000e+0,3.82e-1,
6.592000e+0,3.82e-1,
6.593000e+0,3.82e-1,
6.594000e+0,3.82e-1,
6.595000e+0,3.84e-1,
6.596000e+0,3.84e-1,
6.597000e+0,3.86e-1,
6.598000e+0,3.86e-1,
6.599000e+0,3.86e-1,
6.600000e+0,3.86e-1,
6.601000e+0,3.88e-1,
6.602000e+0,3.88e-1,
6.603000e+0,3.94e-1,
6.604000e+0,3.94e-1,
6.605000e+0,3.92e-1,
6.606000e+0,3.92e-1,
6.607000e+0,3.94e-1,
6.608000e+0,3.94e-1,
6.609000e+0,3.96e-1,
6.610000e+0,3.96e-1,
6.611000e+0,3.98e-1,
6.612000e+0,3.98e-1,
6.613000e+0,3.98e-1,
6.614000e+0,3.98e-1,
6.615000e+0,4.02e-1,
6.616000e+0,4.02e-1,
6.617000e+0,4.02e-1,
6.618000e+0,4.02e-1,
6.619000e+0,4.06e-1,
6.620000e+0,4.06e-1,
6.621000e+0,4.06e-1,
6.622000e+0,4.06e-1,
6.623000e+0,4.10e-1,
6.624000e+0,4.10e-1,
6.625000e+0,4.10e-1,
6.626000e+0,4.10e-1,
6.627000e+0,4.10e-1,
6.628000e+0,4.10e-1,
6.629000e+0,4.14e-1,
6.630000e+0,4.14e-1,
6.631000e+0,4.14e-1,
6.632000e+0,4.14e-1,
6.633000e+0,4.16e-1,
6.634000e+0,4.16e-1,
6.635000e+0,4.16e-1,
6.636000e+0,4.16e-1,
6.637000e+0,4.16e-1,
6.638000e+0,4.16e-1,
6.639000e+0,4.20e-1,
6.640000e+0,4.20e-1,
6.641000e+0,4.22e-1,
6.642000e+0,4.22e-1,
6.643000e+0,4.20e-1,
6.644000e+0,4.20e-1,
6.645000e+0,4.20e-1,
6.646000e+0,4.20e-1,
6.647000e+0,4.22e-1,
6.648000e+0,4.22e-1,
6.649000e+0,4.22e-1,
6.650000e+0,4.22e-1,
6.651000e+0,4.24e-1,
6.652000e+0,4.24e-1,
6.653000e+0,4.22e-1,
6.654000e+0,4.22e-1,
6.655000e+0,4.22e-1,
6.656000e+0,4.22e-1,
6.657000e+0,4.24e-1,
6.658000e+0,4.24e-1,
6.659000e+0,4.22e-1,
6.660000e+0,4.22e-1,
6.661000e+0,4.24e-1,
6.662000e+0,4.24e-1,
6.663000e+0,4.24e-1,
6.664000e+0,4.24e-1,
6.665000e+0,4.24e-1,
6.666000e+0,4.24e-1,
6.667000e+0,4.22e-1,
6.668000e+0,4.22e-1,
6.669000e+0,4.22e-1,
6.670000e+0,4.22e-1,
6.671000e+0,4.20e-1,
6.672000e+0,4.20e-1,
6.673000e+0,4.20e-1,
6.674000e+0,4.20e-1,
6.675000e+0,4.20e-1,
6.676000e+0,4.20e-1,
6.677000e+0,4.16e-1,
6.678000e+0,4.16e-1,
6.679000e+0,4.14e-1,
6.680000e+0,4.14e-1,
6.681000e+0,4.14e-1,
6.682000e+0,4.14e-1,
6.683000e+0,4.14e-1,
6.684000e+0,4.14e-1,
6.685000e+0,4.12e-1,
6.686000e+0,4.12e-1,
6.687000e+0,4.10e-1,
6.688000e+0,4.10e-1,
6.689000e+0,4.08e-1,
6.690000e+0,4.08e-1,
6.691000e+0,4.06e-1,
6.692000e+0,4.06e-1,
6.693000e+0,4.02e-1,
6.694000e+0,4.02e-1,
6.695000e+0,4.02e-1,
6.696000e+0,4.02e-1,
6.697000e+0,4.00e-1,
6.698000e+0,4.00e-1,
6.699000e+0,3.96e-1,
6.700000e+0,3.96e-1,
6.701000e+0,3.94e-1,
6.702000e+0,3.94e-1,
6.703000e+0,3.92e-1,
6.704000e+0,3.92e-1,
6.705000e+0,3.88e-1,
6.706000e+0,3.88e-1,
6.707000e+0,3.82e-1,
6.708000e+0,3.82e-1,
6.709000e+0,3.80e-1,
6.710000e+0,3.80e-1,
6.711000e+0,3.78e-1,
6.712000e+0,3.78e-1,
6.713000e+0,3.76e-1,
6.714000e+0,3.76e-1,
6.715000e+0,3.70e-1,
6.716000e+0,3.70e-1,
6.717000e+0,3.66e-1,
6.718000e+0,3.66e-1,
6.719000e+0,3.60e-1,
6.720000e+0,3.60e-1,
6.721000e+0,3.56e-1,
6.722000e+0,3.56e-1,
6.723000e+0,3.52e-1,
6.724000e+0,3.52e-1,
6.725000e+0,3.48e-1,
6.726000e+0,3.48e-1,
6.727000e+0,3.48e-1,
6.728000e+0,3.48e-1,
6.729000e+0,3.42e-1,
6.730000e+0,3.42e-1,
6.731000e+0,3.38e-1,
6.732000e+0,3.38e-1,
6.733000e+0,3.32e-1,
6.734000e+0,3.32e-1,
6.735000e+0,3.30e-1,
6.736000e+0,3.30e-1,
6.737000e+0,3.24e-1,
6.738000e+0,3.24e-1,
6.739000e+0,3.20e-1,
6.740000e+0,3.20e-1,
6.741000e+0,3.16e-1,
6.742000e+0,3.16e-1,
6.743000e+0,3.14e-1,
6.744000e+0,3.14e-1,
6.745000e+0,3.08e-1,
6.746000e+0,3.08e-1,
6.747000e+0,3.08e-1,
6.748000e+0,3.08e-1,
6.749000e+0,3.02e-1,
6.750000e+0,3.02e-1,
6.751000e+0,3.00e-1,
6.752000e+0,3.00e-1,
6.753000e+0,3.00e-1,
6.754000e+0,3.00e-1,
6.755000e+0,3.00e-1,
6.756000e+0,3.00e-1,
6.757000e+0,2.98e-1,
6.758000e+0,2.98e-1,
6.759000e+0,2.96e-1,
6.760000e+0,2.96e-1,
6.761000e+0,2.96e-1,
6.762000e+0,2.96e-1,
6.763000e+0,2.98e-1,
6.764000e+0,2.98e-1,
6.765000e+0,3.00e-1,
6.766000e+0,3.00e-1,
6.767000e+0,2.96e-1,
6.768000e+0,2.96e-1,
6.769000e+0,3.02e-1,
6.770000e+0,3.02e-1,
6.771000e+0,3.04e-1,
6.772000e+0,3.04e-1,
6.773000e+0,3.10e-1,
6.774000e+0,3.10e-1,
6.775000e+0,3.14e-1,
6.776000e+0,3.14e-1,
6.777000e+0,3.12e-1,
6.778000e+0,3.12e-1,
6.779000e+0,3.10e-1,
6.780000e+0,3.10e-1,
6.781000e+0,3.12e-1,
6.782000e+0,3.12e-1,
6.783000e+0,3.10e-1,
6.784000e+0,3.10e-1,
6.785000e+0,2.90e-1,
6.786000e+0,2.90e-1,
6.787000e+0,2.84e-1,
6.788000e+0,2.84e-1,
6.789000e+0,2.74e-1,
6.790000e+0,2.74e-1,
6.791000e+0,2.74e-1,
6.792000e+0,2.74e-1,
6.793000e+0,2.76e-1,
6.794000e+0,2.76e-1,
6.795000e+0,2.78e-1,
6.796000e+0,2.78e-1,
6.797000e+0,2.76e-1,
6.798000e+0,2.76e-1,
6.799000e+0,2.72e-1,
6.800000e+0,2.72e-1,
6.801000e+0,2.72e-1,
6.802000e+0,2.72e-1,
6.803000e+0,2.72e-1,
6.804000e+0,2.72e-1,
6.805000e+0,2.74e-1,
6.806000e+0,2.74e-1,
6.807000e+0,2.74e-1,
6.808000e+0,2.74e-1,
6.809000e+0,2.76e-1,
6.810000e+0,2.76e-1,
6.811000e+0,2.78e-1,
6.812000e+0,2.78e-1,
6.813000e+0,2.82e-1,
6.814000e+0,2.82e-1,
6.815000e+0,2.84e-1,
6.816000e+0,2.84e-1,
6.817000e+0,2.86e-1,
6.818000e+0,2.86e-1,
6.819000e+0,2.90e-1,
6.820000e+0,2.90e-1,
6.821000e+0,2.94e-1,
6.822000e+0,2.94e-1,
6.823000e+0,2.94e-1,
6.824000e+0,2.94e-1,
6.825000e+0,3.02e-1,
6.826000e+0,3.02e-1,
6.827000e+0,3.04e-1,
6.828000e+0,3.04e-1,
6.829000e+0,3.08e-1,
6.830000e+0,3.08e-1,
6.831000e+0,3.10e-1,
6.832000e+0,3.10e-1,
6.833000e+0,3.16e-1,
6.834000e+0,3.16e-1,
6.835000e+0,3.20e-1,
6.836000e+0,3.20e-1,
6.837000e+0,3.24e-1,
6.838000e+0,3.24e-1,
6.839000e+0,3.28e-1,
6.840000e+0,3.28e-1,
6.841000e+0,3.32e-1,
6.842000e+0,3.32e-1,
6.843000e+0,3.38e-1,
6.844000e+0,3.38e-1,
6.845000e+0,3.40e-1,
6.846000e+0,3.40e-1,
6.847000e+0,3.42e-1,
6.848000e+0,3.42e-1,
6.849000e+0,3.48e-1,
6.850000e+0,3.48e-1,
6.851000e+0,3.54e-1,
6.852000e+0,3.54e-1,
6.853000e+0,3.56e-1,
6.854000e+0,3.56e-1,
6.855000e+0,3.64e-1,
6.856000e+0,3.64e-1,
6.857000e+0,3.68e-1,
6.858000e+0,3.68e-1,
6.859000e+0,3.68e-1,
6.860000e+0,3.68e-1,
6.861000e+0,3.74e-1,
6.862000e+0,3.74e-1,
6.863000e+0,3.76e-1,
6.864000e+0,3.76e-1,
6.865000e+0,3.80e-1,
6.866000e+0,3.80e-1,
6.867000e+0,3.84e-1,
6.868000e+0,3.84e-1,
6.869000e+0,3.90e-1,
6.870000e+0,3.90e-1,
6.871000e+0,3.92e-1,
6.872000e+0,3.92e-1,
6.873000e+0,3.94e-1,
6.874000e+0,3.94e-1,
6.875000e+0,3.96e-1,
6.876000e+0,3.96e-1,
6.877000e+0,4.00e-1,
6.878000e+0,4.00e-1,
6.879000e+0,4.02e-1,
6.880000e+0,4.02e-1,
6.881000e+0,4.04e-1,
6.882000e+0,4.04e-1,
6.883000e+0,4.08e-1,
6.884000e+0,4.08e-1,
6.885000e+0,4.10e-1,
6.886000e+0,4.10e-1,
6.887000e+0,4.10e-1,
6.888000e+0,4.10e-1,
6.889000e+0,4.12e-1,
6.890000e+0,4.12e-1,
6.891000e+0,4.16e-1,
6.892000e+0,4.16e-1,
6.893000e+0,4.14e-1,
6.894000e+0,4.14e-1,
6.895000e+0,4.18e-1,
6.896000e+0,4.18e-1,
6.897000e+0,4.18e-1,
6.898000e+0,4.18e-1,
6.899000e+0,4.20e-1,
6.900000e+0,4.20e-1,
6.901000e+0,4.24e-1,
6.902000e+0,4.24e-1,
6.903000e+0,4.24e-1,
6.904000e+0,4.24e-1,
6.905000e+0,4.26e-1,
6.906000e+0,4.26e-1,
6.907000e+0,4.26e-1,
6.908000e+0,4.26e-1,
6.909000e+0,4.24e-1,
6.910000e+0,4.24e-1,
6.911000e+0,4.22e-1,
6.912000e+0,4.22e-1,
6.913000e+0,4.28e-1,
6.914000e+0,4.28e-1,
6.915000e+0,4.28e-1,
6.916000e+0,4.28e-1,
6.917000e+0,4.28e-1,
6.918000e+0,4.28e-1,
6.919000e+0,4.28e-1,
6.920000e+0,4.28e-1,
6.921000e+0,4.30e-1,
6.922000e+0,4.30e-1,
6.923000e+0,4.30e-1,
6.924000e+0,4.30e-1,
6.925000e+0,4.30e-1,
6.926000e+0,4.30e-1,
6.927000e+0,4.32e-1,
6.928000e+0,4.32e-1,
6.929000e+0,4.30e-1,
6.930000e+0,4.30e-1,
6.931000e+0,4.28e-1,
6.932000e+0,4.28e-1,
6.933000e+0,4.30e-1,
6.934000e+0,4.30e-1,
6.935000e+0,4.30e-1,
6.936000e+0,4.30e-1,
6.937000e+0,4.28e-1,
6.938000e+0,4.28e-1,
6.939000e+0,4.30e-1,
6.940000e+0,4.30e-1,
6.941000e+0,4.30e-1,
6.942000e+0,4.30e-1,
6.943000e+0,4.32e-1,
6.944000e+0,4.32e-1,
6.945000e+0,4.30e-1,
6.946000e+0,4.30e-1,
6.947000e+0,4.30e-1,
6.948000e+0,4.30e-1,
6.949000e+0,4.32e-1,
6.950000e+0,4.32e-1,
6.951000e+0,4.32e-1,
6.952000e+0,4.32e-1,
6.953000e+0,4.30e-1,
6.954000e+0,4.30e-1,
6.955000e+0,4.30e-1,
6.956000e+0,4.30e-1,
6.957000e+0,4.32e-1,
6.958000e+0,4.32e-1,
6.959000e+0,4.30e-1,
6.960000e+0,4.30e-1,
6.961000e+0,4.30e-1,
6.962000e+0,4.30e-1,
6.963000e+0,4.30e-1,
6.964000e+0,4.30e-1,
6.965000e+0,4.30e-1,
6.966000e+0,4.30e-1,
6.967000e+0,4.30e-1,
6.968000e+0,4.30e-1,
6.969000e+0,4.30e-1,
6.970000e+0,4.30e-1,
6.971000e+0,4.32e-1,
6.972000e+0,4.32e-1,
6.973000e+0,4.30e-1,
6.974000e+0,4.30e-1,
6.975000e+0,4.30e-1,
6.976000e+0,4.30e-1,
6.977000e+0,4.28e-1,
6.978000e+0,4.28e-1,
6.979000e+0,4.30e-1,
6.980000e+0,4.30e-1,
6.981000e+0,4.28e-1,
6.982000e+0,4.28e-1,
6.983000e+0,4.28e-1,
6.984000e+0,4.28e-1,
6.985000e+0,4.30e-1,
6.986000e+0,4.30e-1,
6.987000e+0,4.30e-1,
6.988000e+0,4.30e-1,
6.989000e+0,4.30e-1,
6.990000e+0,4.30e-1,
6.991000e+0,4.30e-1,
6.992000e+0,4.30e-1,
6.993000e+0,4.30e-1,
6.994000e+0,4.30e-1,
6.995000e+0,4.30e-1,
6.996000e+0,4.30e-1,
6.997000e+0,4.30e-1,
6.998000e+0,4.30e-1,
6.999000e+0,4.30e-1,
7.000000e+0,4.30e-1,
7.001000e+0,4.30e-1,
7.002000e+0,4.30e-1,
7.003000e+0,4.30e-1,
7.004000e+0,4.30e-1,
7.005000e+0,4.30e-1,
7.006000e+0,4.30e-1,
7.007000e+0,4.28e-1,
7.008000e+0,4.28e-1,
7.009000e+0,4.30e-1,
7.010000e+0,4.30e-1,
7.011000e+0,4.30e-1,
7.012000e+0,4.30e-1,
7.013000e+0,4.30e-1,
7.014000e+0,4.30e-1,
7.015000e+0,4.30e-1,
7.016000e+0,4.30e-1,
7.017000e+0,4.30e-1,
7.018000e+0,4.30e-1,
7.019000e+0,4.30e-1,
7.020000e+0,4.30e-1,
7.021000e+0,4.30e-1,
7.022000e+0,4.30e-1,
7.023000e+0,4.30e-1,
7.024000e+0,4.30e-1,
7.025000e+0,4.28e-1,
7.026000e+0,4.28e-1,
7.027000e+0,4.30e-1,
7.028000e+0,4.30e-1,
7.029000e+0,4.30e-1,
7.030000e+0,4.30e-1,
7.031000e+0,4.30e-1,
7.032000e+0,4.30e-1,
7.033000e+0,4.30e-1,
7.034000e+0,4.30e-1,
7.035000e+0,4.28e-1,
7.036000e+0,4.28e-1,
7.037000e+0,4.28e-1,
7.038000e+0,4.28e-1,
7.039000e+0,4.28e-1,
7.040000e+0,4.28e-1,
7.041000e+0,4.30e-1,
7.042000e+0,4.30e-1,
7.043000e+0,4.26e-1,
7.044000e+0,4.26e-1,
7.045000e+0,4.28e-1,
7.046000e+0,4.28e-1,
7.047000e+0,4.28e-1,
7.048000e+0,4.28e-1,
7.049000e+0,4.28e-1,
7.050000e+0,4.28e-1,
7.051000e+0,4.28e-1,
7.052000e+0,4.28e-1,
7.053000e+0,4.26e-1,
7.054000e+0,4.26e-1,
7.055000e+0,4.30e-1,
7.056000e+0,4.30e-1,
7.057000e+0,4.28e-1,
7.058000e+0,4.28e-1,
7.059000e+0,4.28e-1,
7.060000e+0,4.28e-1,
7.061000e+0,4.26e-1,
7.062000e+0,4.26e-1,
7.063000e+0,4.28e-1,
7.064000e+0,4.28e-1,
7.065000e+0,4.28e-1,
7.066000e+0,4.28e-1,
7.067000e+0,4.30e-1,
7.068000e+0,4.30e-1,
7.069000e+0,4.28e-1,
7.070000e+0,4.28e-1,
7.071000e+0,4.28e-1,
7.072000e+0,4.28e-1,
7.073000e+0,4.28e-1,
7.074000e+0,4.28e-1,
7.075000e+0,4.28e-1,
7.076000e+0,4.28e-1,
7.077000e+0,4.28e-1,
7.078000e+0,4.28e-1,
7.079000e+0,4.28e-1,
7.080000e+0,4.28e-1,
7.081000e+0,4.26e-1,
7.082000e+0,4.26e-1,
7.083000e+0,4.28e-1,
7.084000e+0,4.28e-1,
7.085000e+0,4.28e-1,
7.086000e+0,4.28e-1,
7.087000e+0,4.26e-1,
7.088000e+0,4.26e-1,
7.089000e+0,4.28e-1,
7.090000e+0,4.28e-1,
7.091000e+0,4.28e-1,
7.092000e+0,4.28e-1,
7.093000e+0,4.28e-1,
7.094000e+0,4.28e-1,
7.095000e+0,4.28e-1,
7.096000e+0,4.28e-1,
7.097000e+0,4.24e-1,
7.098000e+0,4.24e-1,
7.099000e+0,4.26e-1,
7.100000e+0,4.26e-1,
7.101000e+0,4.28e-1,
7.102000e+0,4.28e-1,
7.103000e+0,4.28e-1,
7.104000e+0,4.28e-1,
7.105000e+0,4.28e-1,
7.106000e+0,4.28e-1,
7.107000e+0,4.28e-1,
7.108000e+0,4.28e-1,
7.109000e+0,4.28e-1,
7.110000e+0,4.28e-1,
7.111000e+0,4.28e-1,
7.112000e+0,4.28e-1,
7.113000e+0,4.26e-1,
7.114000e+0,4.26e-1,
7.115000e+0,4.28e-1,
7.116000e+0,4.28e-1,
7.117000e+0,4.24e-1,
7.118000e+0,4.24e-1,
7.119000e+0,4.26e-1,
7.120000e+0,4.26e-1,
7.121000e+0,4.28e-1,
7.122000e+0,4.28e-1,
7.123000e+0,4.26e-1,
7.124000e+0,4.26e-1,
7.125000e+0,4.30e-1,
7.126000e+0,4.30e-1,
7.127000e+0,4.28e-1,
7.128000e+0,4.28e-1,
7.129000e+0,4.28e-1,
7.130000e+0,4.28e-1,
7.131000e+0,4.28e-1,
7.132000e+0,4.28e-1,
7.133000e+0,4.28e-1,
7.134000e+0,4.28e-1,
7.135000e+0,4.28e-1,
7.136000e+0,4.28e-1,
7.137000e+0,4.26e-1,
7.138000e+0,4.26e-1,
7.139000e+0,4.26e-1,
7.140000e+0,4.26e-1,
7.141000e+0,4.26e-1,
7.142000e+0,4.26e-1,
7.143000e+0,4.26e-1,
7.144000e+0,4.26e-1,
7.145000e+0,4.28e-1,
7.146000e+0,4.28e-1,
7.147000e+0,4.26e-1,
7.148000e+0,4.26e-1,
7.149000e+0,4.26e-1,
7.150000e+0,4.26e-1,
7.151000e+0,4.24e-1,
7.152000e+0,4.24e-1,
7.153000e+0,4.26e-1,
7.154000e+0,4.26e-1,
7.155000e+0,4.28e-1,
7.156000e+0,4.28e-1,
7.157000e+0,4.26e-1,
7.158000e+0,4.26e-1,
7.159000e+0,4.24e-1,
7.160000e+0,4.24e-1,
7.161000e+0,4.26e-1,
7.162000e+0,4.26e-1,
7.163000e+0,4.24e-1,
7.164000e+0,4.24e-1,
7.165000e+0,4.24e-1,
7.166000e+0,4.24e-1,
7.167000e+0,4.24e-1,
7.168000e+0,4.24e-1,
7.169000e+0,4.26e-1,
7.170000e+0,4.26e-1,
7.171000e+0,4.24e-1,
7.172000e+0,4.24e-1,
7.173000e+0,4.24e-1,
7.174000e+0,4.24e-1,
7.175000e+0,4.24e-1,
7.176000e+0,4.24e-1,
7.177000e+0,4.24e-1,
7.178000e+0,4.24e-1,
7.179000e+0,4.26e-1,
7.180000e+0,4.26e-1,
7.181000e+0,4.24e-1,
7.182000e+0,4.24e-1,
7.183000e+0,4.24e-1,
7.184000e+0,4.24e-1,
7.185000e+0,4.26e-1,
7.186000e+0,4.26e-1,
7.187000e+0,4.24e-1,
7.188000e+0,4.24e-1,
7.189000e+0,4.24e-1,
7.190000e+0,4.24e-1,
7.191000e+0,4.24e-1,
7.192000e+0,4.24e-1,
7.193000e+0,4.22e-1,
7.194000e+0,4.22e-1,
7.195000e+0,4.24e-1,
7.196000e+0,4.24e-1,
7.197000e+0,4.24e-1,
7.198000e+0,4.24e-1,
7.199000e+0,4.24e-1,
7.200000e+0,4.24e-1,
7.201000e+0,4.24e-1,
7.202000e+0,4.24e-1,
7.203000e+0,4.24e-1,
7.204000e+0,4.24e-1,
7.205000e+0,4.28e-1,
7.206000e+0,4.28e-1,
7.207000e+0,4.24e-1,
7.208000e+0,4.24e-1,
7.209000e+0,4.24e-1,
7.210000e+0,4.24e-1,
7.211000e+0,4.24e-1,
7.212000e+0,4.24e-1,
7.213000e+0,4.26e-1,
7.214000e+0,4.26e-1,
7.215000e+0,4.26e-1,
7.216000e+0,4.26e-1,
7.217000e+0,4.26e-1,
7.218000e+0,4.26e-1,
7.219000e+0,4.24e-1,
7.220000e+0,4.24e-1,
7.221000e+0,4.22e-1,
7.222000e+0,4.22e-1,
7.223000e+0,4.22e-1,
7.224000e+0,4.22e-1,
7.225000e+0,4.22e-1,
7.226000e+0,4.22e-1,
7.227000e+0,4.22e-1,
7.228000e+0,4.22e-1,
7.229000e+0,4.24e-1,
7.230000e+0,4.24e-1,
7.231000e+0,4.20e-1,
7.232000e+0,4.20e-1,
7.233000e+0,4.22e-1,
7.234000e+0,4.22e-1,
7.235000e+0,4.22e-1,
7.236000e+0,4.22e-1,
7.237000e+0,4.24e-1,
7.238000e+0,4.24e-1,
7.239000e+0,4.20e-1,
7.240000e+0,4.20e-1,
7.241000e+0,4.22e-1,
7.242000e+0,4.22e-1,
7.243000e+0,4.22e-1,
7.244000e+0,4.22e-1,
7.245000e+0,4.18e-1,
7.246000e+0,4.18e-1,
7.247000e+0,4.20e-1,
7.248000e+0,4.20e-1,
7.249000e+0,4.20e-1,
7.250000e+0,4.20e-1,
7.251000e+0,4.20e-1,
7.252000e+0,4.20e-1,
7.253000e+0,4.18e-1,
7.254000e+0,4.18e-1,
7.255000e+0,4.18e-1,
7.256000e+0,4.18e-1,
7.257000e+0,4.16e-1,
7.258000e+0,4.16e-1,
7.259000e+0,4.18e-1,
7.260000e+0,4.18e-1,
7.261000e+0,4.16e-1,
7.262000e+0,4.16e-1,
7.263000e+0,4.14e-1,
7.264000e+0,4.14e-1,
7.265000e+0,4.12e-1,
7.266000e+0,4.12e-1,
7.267000e+0,4.10e-1,
7.268000e+0,4.10e-1,
7.269000e+0,4.10e-1,
7.270000e+0,4.10e-1,
7.271000e+0,4.10e-1,
7.272000e+0,4.10e-1,
7.273000e+0,4.10e-1,
7.274000e+0,4.10e-1,
7.275000e+0,4.06e-1,
7.276000e+0,4.06e-1,
7.277000e+0,4.06e-1,
7.278000e+0,4.06e-1,
7.279000e+0,4.04e-1,
7.280000e+0,4.04e-1,
7.281000e+0,4.04e-1,
7.282000e+0,4.04e-1,
7.283000e+0,4.00e-1,
7.284000e+0,4.00e-1,
7.285000e+0,3.98e-1,
7.286000e+0,3.98e-1,
7.287000e+0,3.94e-1,
7.288000e+0,3.94e-1,
7.289000e+0,3.94e-1,
7.290000e+0,3.94e-1,
7.291000e+0,3.92e-1,
7.292000e+0,3.92e-1,
7.293000e+0,3.90e-1,
7.294000e+0,3.90e-1,
7.295000e+0,3.88e-1,
7.296000e+0,3.88e-1,
7.297000e+0,3.86e-1,
7.298000e+0,3.86e-1,
7.299000e+0,3.82e-1,
7.300000e+0,3.82e-1,
7.301000e+0,3.78e-1,
7.302000e+0,3.78e-1,
7.303000e+0,3.76e-1,
7.304000e+0,3.76e-1,
7.305000e+0,3.74e-1,
7.306000e+0,3.74e-1,
7.307000e+0,3.70e-1,
7.308000e+0,3.70e-1,
7.309000e+0,3.68e-1,
7.310000e+0,3.68e-1,
7.311000e+0,3.64e-1,
7.312000e+0,3.64e-1,
7.313000e+0,3.64e-1,
7.314000e+0,3.64e-1,
7.315000e+0,3.60e-1,
7.316000e+0,3.60e-1,
7.317000e+0,3.56e-1,
7.318000e+0,3.56e-1,
7.319000e+0,3.52e-1,
7.320000e+0,3.52e-1,
7.321000e+0,3.48e-1,
7.322000e+0,3.48e-1,
7.323000e+0,3.46e-1,
7.324000e+0,3.46e-1,
7.325000e+0,3.42e-1,
7.326000e+0,3.42e-1,
7.327000e+0,3.40e-1,
7.328000e+0,3.40e-1,
7.329000e+0,3.38e-1,
7.330000e+0,3.38e-1,
7.331000e+0,3.34e-1,
7.332000e+0,3.34e-1,
7.333000e+0,3.30e-1,
7.334000e+0,3.30e-1,
7.335000e+0,3.26e-1,
7.336000e+0,3.26e-1,
7.337000e+0,3.26e-1,
7.338000e+0,3.26e-1,
7.339000e+0,3.24e-1,
7.340000e+0,3.24e-1,
7.341000e+0,3.20e-1,
7.342000e+0,3.20e-1,
7.343000e+0,3.18e-1,
7.344000e+0,3.18e-1,
7.345000e+0,3.16e-1,
7.346000e+0,3.16e-1,
7.347000e+0,3.16e-1,
7.348000e+0,3.16e-1,
7.349000e+0,3.12e-1,
7.350000e+0,3.12e-1,
7.351000e+0,3.14e-1,
7.352000e+0,3.14e-1,
7.353000e+0,3.14e-1,
7.354000e+0,3.14e-1,
7.355000e+0,3.14e-1,
7.356000e+0,3.14e-1,
7.357000e+0,3.14e-1,
7.358000e+0,3.14e-1,
7.359000e+0,3.16e-1,
7.360000e+0,3.16e-1,
7.361000e+0,3.22e-1,
7.362000e+0,3.22e-1,
7.363000e+0,3.28e-1,
7.364000e+0,3.28e-1,
7.365000e+0,3.30e-1,
7.366000e+0,3.30e-1,
7.367000e+0,3.40e-1,
7.368000e+0,3.40e-1,
7.369000e+0,3.46e-1,
7.370000e+0,3.46e-1,
7.371000e+0,3.52e-1,
7.372000e+0,3.52e-1,
7.373000e+0,3.50e-1,
7.374000e+0,3.50e-1,
7.375000e+0,3.46e-1,
7.376000e+0,3.46e-1,
7.377000e+0,3.44e-1,
7.378000e+0,3.44e-1,
7.379000e+0,3.36e-1,
7.380000e+0,3.36e-1,
7.381000e+0,3.32e-1,
7.382000e+0,3.32e-1,
7.383000e+0,3.26e-1,
7.384000e+0,3.26e-1,
7.385000e+0,3.20e-1,
7.386000e+0,3.20e-1,
7.387000e+0,3.18e-1,
7.388000e+0,3.18e-1,
7.389000e+0,3.16e-1,
7.390000e+0,3.16e-1,
7.391000e+0,3.18e-1,
7.392000e+0,3.18e-1,
7.393000e+0,3.20e-1,
7.394000e+0,3.20e-1,
7.395000e+0,3.18e-1,
7.396000e+0,3.18e-1,
7.397000e+0,3.20e-1,
7.398000e+0,3.20e-1,
7.399000e+0,3.22e-1,
7.400000e+0,3.22e-1,
7.401000e+0,3.24e-1,
7.402000e+0,3.24e-1,
7.403000e+0,3.28e-1,
7.404000e+0,3.28e-1,
7.405000e+0,3.30e-1,
7.406000e+0,3.30e-1,
7.407000e+0,3.30e-1,
7.408000e+0,3.30e-1,
7.409000e+0,3.34e-1,
7.410000e+0,3.34e-1,
7.411000e+0,3.36e-1,
7.412000e+0,3.36e-1,
7.413000e+0,3.40e-1,
7.414000e+0,3.40e-1,
7.415000e+0,3.42e-1,
7.416000e+0,3.42e-1,
7.417000e+0,3.46e-1,
7.418000e+0,3.46e-1,
7.419000e+0,3.50e-1,
7.420000e+0,3.50e-1,
7.421000e+0,3.54e-1,
7.422000e+0,3.54e-1,
7.423000e+0,3.56e-1,
7.424000e+0,3.56e-1,
7.425000e+0,3.60e-1,
7.426000e+0,3.60e-1,
7.427000e+0,3.58e-1,
7.428000e+0,3.58e-1,
7.429000e+0,3.64e-1,
7.430000e+0,3.64e-1,
7.431000e+0,3.66e-1,
7.432000e+0,3.66e-1,
7.433000e+0,3.68e-1,
7.434000e+0,3.68e-1,
7.435000e+0,3.72e-1,
7.436000e+0,3.72e-1,
7.437000e+0,3.78e-1,
7.438000e+0,3.78e-1,
7.439000e+0,3.78e-1,
7.440000e+0,3.78e-1,
7.441000e+0,3.82e-1,
7.442000e+0,3.82e-1,
7.443000e+0,3.84e-1,
7.444000e+0,3.84e-1,
7.445000e+0,3.84e-1,
7.446000e+0,3.84e-1,
7.447000e+0,3.88e-1,
7.448000e+0,3.88e-1,
7.449000e+0,3.88e-1,
7.450000e+0,3.88e-1,
7.451000e+0,3.92e-1,
7.452000e+0,3.92e-1,
7.453000e+0,3.96e-1,
7.454000e+0,3.96e-1,
7.455000e+0,3.96e-1,
7.456000e+0,3.96e-1,
7.457000e+0,3.98e-1,
7.458000e+0,3.98e-1,
7.459000e+0,3.98e-1,
7.460000e+0,3.98e-1,
7.461000e+0,4.00e-1,
7.462000e+0,4.00e-1,
7.463000e+0,4.02e-1,
7.464000e+0,4.02e-1,
7.465000e+0,4.04e-1,
7.466000e+0,4.04e-1,
7.467000e+0,4.04e-1,
7.468000e+0,4.04e-1,
7.469000e+0,4.04e-1,
7.470000e+0,4.04e-1,
7.471000e+0,4.06e-1,
7.472000e+0,4.06e-1,
7.473000e+0,4.06e-1,
7.474000e+0,4.06e-1,
7.475000e+0,4.10e-1,
7.476000e+0,4.10e-1,
7.477000e+0,4.10e-1,
7.478000e+0,4.10e-1,
7.479000e+0,4.10e-1,
7.480000e+0,4.10e-1,
7.481000e+0,4.10e-1,
7.482000e+0,4.10e-1,
7.483000e+0,4.10e-1,
7.484000e+0,4.10e-1,
7.485000e+0,4.12e-1,
7.486000e+0,4.12e-1,
7.487000e+0,4.12e-1,
7.488000e+0,4.12e-1,
7.489000e+0,4.12e-1,
7.490000e+0,4.12e-1,
7.491000e+0,4.12e-1,
7.492000e+0,4.12e-1,
7.493000e+0,4.12e-1,
7.494000e+0,4.12e-1,
7.495000e+0,4.14e-1,
7.496000e+0,4.14e-1,
7.497000e+0,4.14e-1,
7.498000e+0,4.14e-1,
7.499000e+0,4.14e-1,
7.500000e+0,4.14e-1,
7.501000e+0,4.14e-1,
7.502000e+0,4.14e-1,
7.503000e+0,4.14e-1,
7.504000e+0,4.14e-1,
7.505000e+0,4.16e-1,
7.506000e+0,4.16e-1,
7.507000e+0,4.16e-1,
7.508000e+0,4.16e-1,
7.509000e+0,4.16e-1,
7.510000e+0,4.16e-1,
7.511000e+0,4.14e-1,
7.512000e+0,4.14e-1,
7.513000e+0,4.16e-1,
7.514000e+0,4.16e-1,
7.515000e+0,4.18e-1,
7.516000e+0,4.18e-1,
7.517000e+0,4.14e-1,
7.518000e+0,4.14e-1,
7.519000e+0,4.16e-1,
7.520000e+0,4.16e-1,
7.521000e+0,4.14e-1,
7.522000e+0,4.14e-1,
7.523000e+0,4.16e-1,
7.524000e+0,4.16e-1,
7.525000e+0,4.14e-1,
7.526000e+0,4.14e-1,
7.527000e+0,4.18e-1,
7.528000e+0,4.18e-1,
7.529000e+0,4.18e-1,
7.530000e+0,4.18e-1,
7.531000e+0,4.18e-1,
7.532000e+0,4.18e-1,
7.533000e+0,4.16e-1,
7.534000e+0,4.16e-1,
7.535000e+0,4.18e-1,
7.536000e+0,4.18e-1,
7.537000e+0,4.16e-1,
7.538000e+0,4.16e-1,
7.539000e+0,4.16e-1,
7.540000e+0,4.16e-1,
7.541000e+0,4.16e-1,
7.542000e+0,4.16e-1,
7.543000e+0,4.18e-1,
7.544000e+0,4.18e-1,
7.545000e+0,4.16e-1,
7.546000e+0,4.16e-1,
7.547000e+0,4.16e-1,
7.548000e+0,4.16e-1,
7.549000e+0,4.16e-1,
7.550000e+0,4.16e-1,
7.551000e+0,4.16e-1,
7.552000e+0,4.16e-1,
7.553000e+0,4.18e-1,
7.554000e+0,4.18e-1,
7.555000e+0,4.16e-1,
7.556000e+0,4.16e-1,
7.557000e+0,4.16e-1,
7.558000e+0,4.16e-1,
7.559000e+0,4.18e-1,
7.560000e+0,4.18e-1,
7.561000e+0,4.18e-1,
7.562000e+0,4.18e-1,
7.563000e+0,4.14e-1,
7.564000e+0,4.14e-1,
7.565000e+0,4.16e-1,
7.566000e+0,4.16e-1,
7.567000e+0,4.14e-1,
7.568000e+0,4.14e-1,
7.569000e+0,4.16e-1,
7.570000e+0,4.16e-1,
7.571000e+0,4.14e-1,
7.572000e+0,4.14e-1,
7.573000e+0,4.16e-1,
7.574000e+0,4.16e-1,
7.575000e+0,4.14e-1,
7.576000e+0,4.14e-1,
7.577000e+0,4.16e-1,
7.578000e+0,4.16e-1,
7.579000e+0,4.14e-1,
7.580000e+0,4.14e-1,
7.581000e+0,4.16e-1,
7.582000e+0,4.16e-1,
7.583000e+0,4.14e-1,
7.584000e+0,4.14e-1,
7.585000e+0,4.14e-1,
7.586000e+0,4.14e-1,
7.587000e+0,4.14e-1,
7.588000e+0,4.14e-1,
7.589000e+0,4.14e-1,
7.590000e+0,4.14e-1,
7.591000e+0,4.14e-1,
7.592000e+0,4.14e-1,
7.593000e+0,4.14e-1,
7.594000e+0,4.14e-1,
7.595000e+0,4.14e-1,
7.596000e+0,4.14e-1,
7.597000e+0,4.14e-1,
7.598000e+0,4.14e-1,
7.599000e+0,4.14e-1,
7.600000e+0,4.14e-1,
7.601000e+0,4.14e-1,
7.602000e+0,4.14e-1,
7.603000e+0,4.12e-1,
7.604000e+0,4.12e-1,
7.605000e+0,4.12e-1,
7.606000e+0,4.12e-1,
7.607000e+0,4.12e-1,
7.608000e+0,4.12e-1,
7.609000e+0,4.12e-1,
7.610000e+0,4.12e-1,
7.611000e+0,4.12e-1,
7.612000e+0,4.12e-1,
7.613000e+0,4.12e-1,
7.614000e+0,4.12e-1,
7.615000e+0,4.14e-1,
7.616000e+0,4.14e-1,
7.617000e+0,4.12e-1,
7.618000e+0,4.12e-1,
7.619000e+0,4.14e-1,
7.620000e+0,4.14e-1,
7.621000e+0,4.12e-1,
7.622000e+0,4.12e-1,
7.623000e+0,4.12e-1,
7.624000e+0,4.12e-1,
7.625000e+0,4.14e-1,
7.626000e+0,4.14e-1,
7.627000e+0,4.14e-1,
7.628000e+0,4.14e-1,
7.629000e+0,4.12e-1,
7.630000e+0,4.12e-1,
7.631000e+0,4.14e-1,
7.632000e+0,4.14e-1,
7.633000e+0,4.12e-1,
7.634000e+0,4.12e-1,
7.635000e+0,4.14e-1,
7.636000e+0,4.14e-1,
7.637000e+0,4.14e-1,
7.638000e+0,4.14e-1,
7.639000e+0,4.12e-1,
7.640000e+0,4.12e-1,
7.641000e+0,4.16e-1,
7.642000e+0,4.16e-1,
7.643000e+0,4.14e-1,
7.644000e+0,4.14e-1,
7.645000e+0,4.14e-1,
7.646000e+0,4.14e-1,
7.647000e+0,4.12e-1,
7.648000e+0,4.12e-1,
7.649000e+0,4.16e-1,
7.650000e+0,4.16e-1,
7.651000e+0,4.16e-1,
7.652000e+0,4.16e-1,
7.653000e+0,4.14e-1,
7.654000e+0,4.14e-1,
7.655000e+0,4.14e-1,
7.656000e+0,4.14e-1,
7.657000e+0,4.14e-1,
7.658000e+0,4.14e-1,
7.659000e+0,4.14e-1,
7.660000e+0,4.14e-1,
7.661000e+0,4.14e-1,
7.662000e+0,4.14e-1,
7.663000e+0,4.14e-1,
7.664000e+0,4.14e-1,
7.665000e+0,4.14e-1,
7.666000e+0,4.14e-1,
7.667000e+0,4.14e-1,
7.668000e+0,4.14e-1,
7.669000e+0,4.14e-1,
7.670000e+0,4.14e-1,
7.671000e+0,4.12e-1,
7.672000e+0,4.12e-1,
7.673000e+0,4.14e-1,
7.674000e+0,4.14e-1,
7.675000e+0,4.14e-1,
7.676000e+0,4.14e-1,
7.677000e+0,4.14e-1,
7.678000e+0,4.14e-1,
7.679000e+0,4.14e-1,
7.680000e+0,4.14e-1,
7.681000e+0,4.14e-1,
7.682000e+0,4.14e-1,
7.683000e+0,4.14e-1,
7.684000e+0,4.14e-1,
7.685000e+0,4.12e-1,
7.686000e+0,4.12e-1,
7.687000e+0,4.12e-1,
7.688000e+0,4.12e-1,
7.689000e+0,4.14e-1,
7.690000e+0,4.14e-1,
7.691000e+0,4.14e-1,
7.692000e+0,4.14e-1,
7.693000e+0,4.12e-1,
7.694000e+0,4.12e-1,
7.695000e+0,4.12e-1,
7.696000e+0,4.12e-1,
7.697000e+0,4.12e-1,
7.698000e+0,4.12e-1,
7.699000e+0,4.12e-1,
7.700000e+0,4.12e-1,
7.701000e+0,4.10e-1,
7.702000e+0,4.10e-1,
7.703000e+0,4.10e-1,
7.704000e+0,4.10e-1,
7.705000e+0,4.12e-1,
7.706000e+0,4.12e-1,
7.707000e+0,4.10e-1,
7.708000e+0,4.10e-1,
7.709000e+0,4.12e-1,
7.710000e+0,4.12e-1,
7.711000e+0,4.10e-1,
7.712000e+0,4.10e-1,
7.713000e+0,4.14e-1,
7.714000e+0,4.14e-1,
7.715000e+0,4.10e-1,
7.716000e+0,4.10e-1,
7.717000e+0,4.10e-1,
7.718000e+0,4.10e-1,
7.719000e+0,4.10e-1,
7.720000e+0,4.10e-1,
7.721000e+0,4.10e-1,
7.722000e+0,4.10e-1,
7.723000e+0,4.10e-1,
7.724000e+0,4.10e-1,
7.725000e+0,4.12e-1,
7.726000e+0,4.12e-1,
7.727000e+0,4.12e-1,
7.728000e+0,4.12e-1,
7.729000e+0,4.10e-1,
7.730000e+0,4.10e-1,
7.731000e+0,4.12e-1,
7.732000e+0,4.12e-1,
7.733000e+0,4.12e-1,
7.734000e+0,4.12e-1,
7.735000e+0,4.08e-1,
7.736000e+0,4.08e-1,
7.737000e+0,4.10e-1,
7.738000e+0,4.10e-1,
7.739000e+0,4.12e-1,
7.740000e+0,4.12e-1,
7.741000e+0,4.10e-1,
7.742000e+0,4.10e-1,
7.743000e+0,4.10e-1,
7.744000e+0,4.10e-1,
7.745000e+0,4.08e-1,
7.746000e+0,4.08e-1,
7.747000e+0,4.08e-1,
7.748000e+0,4.08e-1,
7.749000e+0,4.10e-1,
7.750000e+0,4.10e-1,
7.751000e+0,4.10e-1,
7.752000e+0,4.10e-1,
7.753000e+0,4.10e-1,
7.754000e+0,4.10e-1,
7.755000e+0,4.10e-1,
7.756000e+0,4.10e-1,
7.757000e+0,4.06e-1,
7.758000e+0,4.06e-1,
7.759000e+0,4.08e-1,
7.760000e+0,4.08e-1,
7.761000e+0,4.08e-1,
7.762000e+0,4.08e-1,
7.763000e+0,4.06e-1,
7.764000e+0,4.06e-1,
7.765000e+0,4.06e-1,
7.766000e+0,4.06e-1,
7.767000e+0,4.06e-1,
7.768000e+0,4.06e-1,
7.769000e+0,4.06e-1,
7.770000e+0,4.06e-1,
7.771000e+0,4.04e-1,
7.772000e+0,4.04e-1,
7.773000e+0,4.04e-1,
7.774000e+0,4.04e-1,
7.775000e+0,4.04e-1,
7.776000e+0,4.04e-1,
7.777000e+0,4.04e-1,
7.778000e+0,4.04e-1,
7.779000e+0,4.04e-1,
7.780000e+0,4.04e-1,
7.781000e+0,4.00e-1,
7.782000e+0,4.00e-1,
7.783000e+0,4.00e-1,
7.784000e+0,4.00e-1,
7.785000e+0,3.98e-1,
7.786000e+0,3.98e-1,
7.787000e+0,3.98e-1,
7.788000e+0,3.98e-1,
7.789000e+0,3.96e-1,
7.790000e+0,3.96e-1,
7.791000e+0,3.98e-1,
7.792000e+0,3.98e-1,
7.793000e+0,3.96e-1,
7.794000e+0,3.96e-1,
7.795000e+0,3.96e-1,
7.796000e+0,3.96e-1,
7.797000e+0,3.96e-1,
7.798000e+0,3.96e-1,
7.799000e+0,3.94e-1,
7.800000e+0,3.94e-1,
7.801000e+0,3.92e-1,
7.802000e+0,3.92e-1,
7.803000e+0,3.90e-1,
7.804000e+0,3.90e-1,
7.805000e+0,3.88e-1,
7.806000e+0,3.88e-1,
7.807000e+0,3.90e-1,
7.808000e+0,3.90e-1,
7.809000e+0,3.86e-1,
7.810000e+0,3.86e-1,
7.811000e+0,3.88e-1,
7.812000e+0,3.88e-1,
7.813000e+0,3.86e-1,
7.814000e+0,3.86e-1,
7.815000e+0,3.86e-1,
7.816000e+0,3.86e-1,
7.817000e+0,3.84e-1,
7.818000e+0,3.84e-1,
7.819000e+0,3.80e-1,
7.820000e+0,3.80e-1,
7.821000e+0,3.80e-1,
7.822000e+0,3.80e-1,
7.823000e+0,3.80e-1,
7.824000e+0,3.80e-1,
7.825000e+0,3.78e-1,
7.826000e+0,3.78e-1,
7.827000e+0,3.78e-1,
7.828000e+0,3.78e-1,
7.829000e+0,3.78e-1,
7.830000e+0,3.78e-1,
7.831000e+0,3.76e-1,
7.832000e+0,3.76e-1,
7.833000e+0,3.76e-1,
7.834000e+0,3.76e-1,
7.835000e+0,3.76e-1,
7.836000e+0,3.76e-1,
7.837000e+0,3.74e-1,
7.838000e+0,3.74e-1,
7.839000e+0,3.74e-1,
7.840000e+0,3.74e-1,
7.841000e+0,3.74e-1,
7.842000e+0,3.74e-1,
7.843000e+0,3.74e-1,
7.844000e+0,3.74e-1,
7.845000e+0,3.72e-1,
7.846000e+0,3.72e-1,
7.847000e+0,3.72e-1,
7.848000e+0,3.72e-1,
7.849000e+0,3.70e-1,
7.850000e+0,3.70e-1,
7.851000e+0,3.72e-1,
7.852000e+0,3.72e-1,
7.853000e+0,3.74e-1,
7.854000e+0,3.74e-1,
7.855000e+0,3.80e-1,
7.856000e+0,3.80e-1,
7.857000e+0,3.78e-1,
7.858000e+0,3.78e-1,
7.859000e+0,3.76e-1,
7.860000e+0,3.76e-1,
7.861000e+0,3.76e-1,
7.862000e+0,3.76e-1,
7.863000e+0,3.76e-1,
7.864000e+0,3.76e-1,
7.865000e+0,3.76e-1,
7.866000e+0,3.76e-1,
7.867000e+0,3.80e-1,
7.868000e+0,3.80e-1,
7.869000e+0,3.80e-1,
7.870000e+0,3.80e-1,
7.871000e+0,3.84e-1,
7.872000e+0,3.84e-1,
7.873000e+0,3.80e-1,
7.874000e+0,3.80e-1,
7.875000e+0,3.78e-1,
7.876000e+0,3.78e-1,
7.877000e+0,3.76e-1,
7.878000e+0,3.76e-1,
7.879000e+0,3.76e-1,
7.880000e+0,3.76e-1,
7.881000e+0,3.76e-1,
7.882000e+0,3.76e-1,
7.883000e+0,3.78e-1,
7.884000e+0,3.78e-1,
7.885000e+0,3.78e-1,
7.886000e+0,3.78e-1,
7.887000e+0,3.80e-1,
7.888000e+0,3.80e-1,
7.889000e+0,3.78e-1,
7.890000e+0,3.78e-1,
7.891000e+0,3.78e-1,
7.892000e+0,3.78e-1,
7.893000e+0,3.78e-1,
7.894000e+0,3.78e-1,
7.895000e+0,3.76e-1,
7.896000e+0,3.76e-1,
7.897000e+0,3.76e-1,
7.898000e+0,3.76e-1,
7.899000e+0,3.76e-1,
7.900000e+0,3.76e-1,
7.901000e+0,3.78e-1,
7.902000e+0,3.78e-1,
7.903000e+0,3.78e-1,
7.904000e+0,3.78e-1,
7.905000e+0,3.80e-1,
7.906000e+0,3.80e-1,
7.907000e+0,3.80e-1,
7.908000e+0,3.80e-1,
7.909000e+0,3.84e-1,
7.910000e+0,3.84e-1,
7.911000e+0,3.80e-1,
7.912000e+0,3.80e-1,
7.913000e+0,3.82e-1,
7.914000e+0,3.82e-1,
7.915000e+0,3.84e-1,
7.916000e+0,3.84e-1,
7.917000e+0,3.84e-1,
7.918000e+0,3.84e-1,
7.919000e+0,3.86e-1,
7.920000e+0,3.86e-1,
7.921000e+0,3.86e-1,
7.922000e+0,3.86e-1,
7.923000e+0,3.86e-1,
7.924000e+0,3.86e-1,
7.925000e+0,3.88e-1,
7.926000e+0,3.88e-1,
7.927000e+0,3.88e-1,
7.928000e+0,3.88e-1,
7.929000e+0,3.88e-1,
7.930000e+0,3.88e-1,
7.931000e+0,3.92e-1,
7.932000e+0,3.92e-1,
7.933000e+0,3.92e-1,
7.934000e+0,3.92e-1,
7.935000e+0,3.94e-1,
7.936000e+0,3.94e-1,
7.937000e+0,3.92e-1,
7.938000e+0,3.92e-1,
7.939000e+0,3.94e-1,
7.940000e+0,3.94e-1,
7.941000e+0,3.96e-1,
7.942000e+0,3.96e-1,
7.943000e+0,3.96e-1,
7.944000e+0,3.96e-1,
7.945000e+0,3.96e-1,
7.946000e+0,3.96e-1,
7.947000e+0,3.96e-1,
7.948000e+0,3.96e-1,
7.949000e+0,3.96e-1,
7.950000e+0,3.96e-1,
7.951000e+0,3.98e-1,
7.952000e+0,3.98e-1,
7.953000e+0,4.00e-1,
7.954000e+0,4.00e-1,
7.955000e+0,4.00e-1,
7.956000e+0,4.00e-1,
7.957000e+0,4.02e-1,
7.958000e+0,4.02e-1,
7.959000e+0,4.02e-1,
7.960000e+0,4.02e-1,
7.961000e+0,4.02e-1,
7.962000e+0,4.02e-1,
7.963000e+0,4.00e-1,
7.964000e+0,4.00e-1,
7.965000e+0,4.00e-1,
7.966000e+0,4.00e-1,
7.967000e+0,4.02e-1,
7.968000e+0,4.02e-1,
7.969000e+0,4.02e-1,
7.970000e+0,4.02e-1,
7.971000e+0,4.02e-1,
7.972000e+0,4.02e-1,
7.973000e+0,4.02e-1,
7.974000e+0,4.02e-1,
7.975000e+0,4.04e-1,
7.976000e+0,4.04e-1,
7.977000e+0,4.02e-1,
7.978000e+0,4.02e-1,
7.979000e+0,4.04e-1,
7.980000e+0,4.04e-1,
7.981000e+0,4.04e-1,
7.982000e+0,4.04e-1,
7.983000e+0,4.08e-1,
7.984000e+0,4.08e-1,
7.985000e+0,4.02e-1,
7.986000e+0,4.02e-1,
7.987000e+0,4.04e-1,
7.988000e+0,4.04e-1,
7.989000e+0,4.04e-1,
7.990000e+0,4.04e-1,
7.991000e+0,4.06e-1,
7.992000e+0,4.06e-1,
7.993000e+0,4.04e-1,
7.994000e+0,4.04e-1,
7.995000e+0,4.04e-1,
7.996000e+0,4.04e-1,
7.997000e+0,4.06e-1,
7.998000e+0,4.06e-1,
7.999000e+0,4.04e-1,
8.000000e+0,4.04e-1,
8.001000e+0,4.06e-1,
8.002000e+0,4.06e-1,
8.003000e+0,4.06e-1,
8.004000e+0,4.06e-1,
8.005000e+0,4.04e-1,
8.006000e+0,4.04e-1,
8.007000e+0,4.06e-1,
8.008000e+0,4.06e-1,
8.009000e+0,4.04e-1,
8.010000e+0,4.04e-1,
8.011000e+0,4.04e-1,
8.012000e+0,4.04e-1,
8.013000e+0,4.06e-1,
8.014000e+0,4.06e-1,
8.015000e+0,4.04e-1,
8.016000e+0,4.04e-1,
8.017000e+0,4.02e-1,
8.018000e+0,4.02e-1,
8.019000e+0,4.02e-1,
8.020000e+0,4.02e-1,
8.021000e+0,4.04e-1,
8.022000e+0,4.04e-1,
8.023000e+0,4.02e-1,
8.024000e+0,4.02e-1,
8.025000e+0,4.04e-1,
8.026000e+0,4.04e-1,
8.027000e+0,4.04e-1,
8.028000e+0,4.04e-1,
8.029000e+0,4.04e-1,
8.030000e+0,4.04e-1,
8.031000e+0,4.04e-1,
8.032000e+0,4.04e-1,
8.033000e+0,4.02e-1,
8.034000e+0,4.02e-1,
8.035000e+0,4.06e-1,
8.036000e+0,4.06e-1,
8.037000e+0,4.04e-1,
8.038000e+0,4.04e-1,
8.039000e+0,4.02e-1,
8.040000e+0,4.02e-1,
8.041000e+0,4.02e-1,
8.042000e+0,4.02e-1,
8.043000e+0,4.04e-1,
8.044000e+0,4.04e-1,
8.045000e+0,4.04e-1,
8.046000e+0,4.04e-1,
8.047000e+0,4.02e-1,
8.048000e+0,4.02e-1,
8.049000e+0,4.02e-1,
8.050000e+0,4.02e-1,
8.051000e+0,4.04e-1,
8.052000e+0,4.04e-1,
8.053000e+0,4.04e-1,
8.054000e+0,4.04e-1,
8.055000e+0,4.02e-1,
8.056000e+0,4.02e-1,
8.057000e+0,4.06e-1,
8.058000e+0,4.06e-1,
8.059000e+0,4.04e-1,
8.060000e+0,4.04e-1,
8.061000e+0,4.02e-1,
8.062000e+0,4.02e-1,
8.063000e+0,4.04e-1,
8.064000e+0,4.04e-1,
8.065000e+0,4.04e-1,
8.066000e+0,4.04e-1,
8.067000e+0,4.02e-1,
8.068000e+0,4.02e-1,
8.069000e+0,4.04e-1,
8.070000e+0,4.04e-1,
8.071000e+0,4.06e-1,
8.072000e+0,4.06e-1,
8.073000e+0,4.06e-1,
8.074000e+0,4.06e-1,
8.075000e+0,4.04e-1,
8.076000e+0,4.04e-1,
8.077000e+0,4.04e-1,
8.078000e+0,4.04e-1,
8.079000e+0,4.04e-1,
8.080000e+0,4.04e-1,
8.081000e+0,4.04e-1,
8.082000e+0,4.04e-1,
8.083000e+0,4.04e-1,
8.084000e+0,4.04e-1,
8.085000e+0,4.02e-1,
8.086000e+0,4.02e-1,
8.087000e+0,4.02e-1,
8.088000e+0,4.02e-1,
8.089000e+0,4.04e-1,
8.090000e+0,4.04e-1,
8.091000e+0,4.02e-1,
8.092000e+0,4.02e-1,
8.093000e+0,4.02e-1,
8.094000e+0,4.02e-1,
8.095000e+0,4.04e-1,
8.096000e+0,4.04e-1,
8.097000e+0,4.04e-1,
8.098000e+0,4.04e-1,
8.099000e+0,4.04e-1,
8.100000e+0,4.04e-1,
8.101000e+0,4.04e-1,
8.102000e+0,4.04e-1,
8.103000e+0,4.06e-1,
8.104000e+0,4.06e-1,
8.105000e+0,4.04e-1,
8.106000e+0,4.04e-1,
8.107000e+0,4.04e-1,
8.108000e+0,4.04e-1,
8.109000e+0,4.02e-1,
8.110000e+0,4.02e-1,
8.111000e+0,4.02e-1,
8.112000e+0,4.02e-1,
8.113000e+0,4.02e-1,
8.114000e+0,4.02e-1,
8.115000e+0,4.02e-1,
8.116000e+0,4.02e-1,
8.117000e+0,4.04e-1,
8.118000e+0,4.04e-1,
8.119000e+0,4.02e-1,
8.120000e+0,4.02e-1,
8.121000e+0,4.02e-1,
8.122000e+0,4.02e-1,
8.123000e+0,4.04e-1,
8.124000e+0,4.04e-1,
8.125000e+0,4.02e-1,
8.126000e+0,4.02e-1,
8.127000e+0,4.00e-1,
8.128000e+0,4.00e-1,
8.129000e+0,4.02e-1,
8.130000e+0,4.02e-1,
8.131000e+0,4.02e-1,
8.132000e+0,4.02e-1,
8.133000e+0,4.04e-1,
8.134000e+0,4.04e-1,
8.135000e+0,4.02e-1,
8.136000e+0,4.02e-1,
8.137000e+0,4.00e-1,
8.138000e+0,4.00e-1,
8.139000e+0,4.00e-1,
8.140000e+0,4.00e-1,
8.141000e+0,4.02e-1,
8.142000e+0,4.02e-1,
8.143000e+0,4.00e-1,
8.144000e+0,4.00e-1,
8.145000e+0,4.00e-1,
8.146000e+0,4.00e-1,
8.147000e+0,4.02e-1,
8.148000e+0,4.02e-1,
8.149000e+0,4.02e-1,
8.150000e+0,4.02e-1,
8.151000e+0,4.02e-1,
8.152000e+0,4.02e-1,
8.153000e+0,4.02e-1,
8.154000e+0,4.02e-1,
8.155000e+0,4.00e-1,
8.156000e+0,4.00e-1,
8.157000e+0,4.02e-1,
8.158000e+0,4.02e-1,
8.159000e+0,4.02e-1,
8.160000e+0,4.02e-1,
8.161000e+0,4.00e-1,
8.162000e+0,4.00e-1,
8.163000e+0,4.00e-1,
8.164000e+0,4.00e-1,
8.165000e+0,4.00e-1,
8.166000e+0,4.00e-1,
8.167000e+0,4.02e-1,
8.168000e+0,4.02e-1,
8.169000e+0,4.04e-1,
8.170000e+0,4.04e-1,
8.171000e+0,4.00e-1,
8.172000e+0,4.00e-1,
8.173000e+0,4.02e-1,
8.174000e+0,4.02e-1,
8.175000e+0,4.02e-1,
8.176000e+0,4.02e-1,
8.177000e+0,4.02e-1,
8.178000e+0,4.02e-1,
8.179000e+0,4.02e-1,
8.180000e+0,4.02e-1,
8.181000e+0,4.02e-1,
8.182000e+0,4.02e-1,
8.183000e+0,4.02e-1,
8.184000e+0,4.02e-1,
8.185000e+0,4.02e-1,
8.186000e+0,4.02e-1,
8.187000e+0,4.02e-1,
8.188000e+0,4.02e-1,
8.189000e+0,4.02e-1,
8.190000e+0,4.02e-1,
8.191000e+0,4.02e-1,
8.192000e+0,4.02e-1,
8.193000e+0,4.02e-1,
8.194000e+0,4.02e-1,
8.195000e+0,4.04e-1,
8.196000e+0,4.04e-1,
8.197000e+0,4.02e-1,
8.198000e+0,4.02e-1,
8.199000e+0,4.02e-1,
8.200000e+0,4.02e-1,
8.201000e+0,4.02e-1,
8.202000e+0,4.02e-1,
8.203000e+0,4.00e-1,
8.204000e+0,4.00e-1,
8.205000e+0,4.02e-1,
8.206000e+0,4.02e-1,
8.207000e+0,4.00e-1,
8.208000e+0,4.00e-1,
8.209000e+0,4.02e-1,
8.210000e+0,4.02e-1,
8.211000e+0,4.02e-1,
8.212000e+0,4.02e-1,
8.213000e+0,4.02e-1,
8.214000e+0,4.02e-1,
8.215000e+0,4.00e-1,
8.216000e+0,4.00e-1,
8.217000e+0,3.98e-1,
8.218000e+0,3.98e-1,
8.219000e+0,4.00e-1,
8.220000e+0,4.00e-1,
8.221000e+0,4.00e-1,
8.222000e+0,4.00e-1,
8.223000e+0,3.98e-1,
8.224000e+0,3.98e-1,
8.225000e+0,3.98e-1,
8.226000e+0,3.98e-1,
8.227000e+0,4.00e-1,
8.228000e+0,4.00e-1,
8.229000e+0,3.98e-1,
8.230000e+0,3.98e-1,
8.231000e+0,4.00e-1,
8.232000e+0,4.00e-1,
8.233000e+0,3.98e-1,
8.234000e+0,3.98e-1,
8.235000e+0,3.98e-1,
8.236000e+0,3.98e-1,
8.237000e+0,4.00e-1,
8.238000e+0,4.00e-1,
8.239000e+0,4.00e-1,
8.240000e+0,4.00e-1,
8.241000e+0,3.98e-1,
8.242000e+0,3.98e-1,
8.243000e+0,4.00e-1,
8.244000e+0,4.00e-1,
8.245000e+0,4.00e-1,
8.246000e+0,4.00e-1,
8.247000e+0,3.98e-1,
8.248000e+0,3.98e-1,
8.249000e+0,4.00e-1,
8.250000e+0,4.00e-1,
8.251000e+0,3.98e-1,
8.252000e+0,3.98e-1,
8.253000e+0,3.98e-1,
8.254000e+0,3.98e-1,
8.255000e+0,4.00e-1,
8.256000e+0,4.00e-1,
8.257000e+0,4.00e-1,
8.258000e+0,4.00e-1,
8.259000e+0,3.98e-1,
8.260000e+0,3.98e-1,
8.261000e+0,4.00e-1,
8.262000e+0,4.00e-1,
8.263000e+0,3.98e-1,
8.264000e+0,3.98e-1,
8.265000e+0,4.00e-1,
8.266000e+0,4.00e-1,
8.267000e+0,4.00e-1,
8.268000e+0,4.00e-1,
8.269000e+0,3.98e-1,
8.270000e+0,3.98e-1,
8.271000e+0,3.98e-1,
8.272000e+0,3.98e-1,
8.273000e+0,4.00e-1,
8.274000e+0,4.00e-1,
8.275000e+0,4.00e-1,
8.276000e+0,4.00e-1,
8.277000e+0,4.00e-1,
8.278000e+0,4.00e-1,
8.279000e+0,3.98e-1,
8.280000e+0,3.98e-1,
8.281000e+0,3.98e-1,
8.282000e+0,3.98e-1,
8.283000e+0,3.98e-1,
8.284000e+0,3.98e-1,
8.285000e+0,4.00e-1,
8.286000e+0,4.00e-1,
8.287000e+0,3.98e-1,
8.288000e+0,3.98e-1,
8.289000e+0,3.98e-1,
8.290000e+0,3.98e-1,
8.291000e+0,3.98e-1,
8.292000e+0,3.98e-1,
8.293000e+0,3.98e-1,
8.294000e+0,3.98e-1,
8.295000e+0,4.00e-1,
8.296000e+0,4.00e-1,
8.297000e+0,4.00e-1,
8.298000e+0,4.00e-1,
8.299000e+0,3.98e-1,
8.300000e+0,3.98e-1,
8.301000e+0,3.98e-1,
8.302000e+0,3.98e-1,
8.303000e+0,3.98e-1,
8.304000e+0,3.98e-1,
8.305000e+0,3.98e-1,
8.306000e+0,3.98e-1,
8.307000e+0,3.98e-1,
8.308000e+0,3.98e-1,
8.309000e+0,4.00e-1,
8.310000e+0,4.00e-1,
8.311000e+0,3.98e-1,
8.312000e+0,3.98e-1,
8.313000e+0,3.98e-1,
8.314000e+0,3.98e-1,
8.315000e+0,3.98e-1,
8.316000e+0,3.98e-1,
8.317000e+0,3.98e-1,
8.318000e+0,3.98e-1,
8.319000e+0,3.96e-1,
8.320000e+0,3.96e-1,
8.321000e+0,3.98e-1,
8.322000e+0,3.98e-1,
8.323000e+0,3.96e-1,
8.324000e+0,3.96e-1,
8.325000e+0,3.98e-1,
8.326000e+0,3.98e-1,
8.327000e+0,3.98e-1,
8.328000e+0,3.98e-1,
8.329000e+0,3.96e-1,
8.330000e+0,3.96e-1,
8.331000e+0,3.98e-1,
8.332000e+0,3.98e-1,
8.333000e+0,3.96e-1,
8.334000e+0,3.96e-1,
8.335000e+0,4.00e-1,
8.336000e+0,4.00e-1,
8.337000e+0,3.98e-1,
8.338000e+0,3.98e-1,
8.339000e+0,3.96e-1,
8.340000e+0,3.96e-1,
8.341000e+0,3.96e-1,
8.342000e+0,3.96e-1,
8.343000e+0,3.98e-1,
8.344000e+0,3.98e-1,
8.345000e+0,3.98e-1,
8.346000e+0,3.98e-1,
8.347000e+0,3.96e-1,
8.348000e+0,3.96e-1,
8.349000e+0,3.96e-1,
8.350000e+0,3.96e-1,
8.351000e+0,4.00e-1,
8.352000e+0,4.00e-1,
8.353000e+0,3.94e-1,
8.354000e+0,3.94e-1,
8.355000e+0,3.96e-1,
8.356000e+0,3.96e-1,
8.357000e+0,3.96e-1,
8.358000e+0,3.96e-1,
8.359000e+0,3.96e-1,
8.360000e+0,3.96e-1,
8.361000e+0,3.96e-1,
8.362000e+0,3.96e-1,
8.363000e+0,3.96e-1,
8.364000e+0,3.96e-1,
8.365000e+0,3.96e-1,
8.366000e+0,3.96e-1,
8.367000e+0,3.96e-1,
8.368000e+0,3.96e-1,
8.369000e+0,3.96e-1,
8.370000e+0,3.96e-1,
8.371000e+0,3.96e-1,
8.372000e+0,3.96e-1,
8.373000e+0,3.96e-1,
8.374000e+0,3.96e-1,
8.375000e+0,3.98e-1,
8.376000e+0,3.98e-1,
8.377000e+0,3.96e-1,
8.378000e+0,3.96e-1,
8.379000e+0,3.96e-1,
8.380000e+0,3.96e-1,
8.381000e+0,3.96e-1,
8.382000e+0,3.96e-1,
8.383000e+0,3.98e-1,
8.384000e+0,3.98e-1,
8.385000e+0,3.96e-1,
8.386000e+0,3.96e-1,
8.387000e+0,3.96e-1,
8.388000e+0,3.96e-1,
8.389000e+0,3.94e-1,
8.390000e+0,3.94e-1,
8.391000e+0,3.98e-1,
8.392000e+0,3.98e-1,
8.393000e+0,3.96e-1,
8.394000e+0,3.96e-1,
8.395000e+0,3.96e-1,
8.396000e+0,3.96e-1,
8.397000e+0,3.98e-1,
8.398000e+0,3.98e-1,
8.399000e+0,3.94e-1,
8.400000e+0,3.94e-1,
8.401000e+0,3.94e-1,
8.402000e+0,3.94e-1,
8.403000e+0,3.94e-1,
8.404000e+0,3.94e-1,
8.405000e+0,3.96e-1,
8.406000e+0,3.96e-1,
8.407000e+0,3.94e-1,
8.408000e+0,3.94e-1,
8.409000e+0,3.96e-1,
8.410000e+0,3.96e-1,
8.411000e+0,3.96e-1,
8.412000e+0,3.96e-1,
8.413000e+0,3.96e-1,
8.414000e+0,3.96e-1,
8.415000e+0,3.94e-1,
8.416000e+0,3.94e-1,
8.417000e+0,3.96e-1,
8.418000e+0,3.96e-1,
8.419000e+0,3.96e-1,
8.420000e+0,3.96e-1,
8.421000e+0,3.96e-1,
8.422000e+0,3.96e-1,
8.423000e+0,3.96e-1,
8.424000e+0,3.96e-1,
8.425000e+0,3.96e-1,
8.426000e+0,3.96e-1,
8.427000e+0,3.96e-1,
8.428000e+0,3.96e-1,
8.429000e+0,3.94e-1,
8.430000e+0,3.94e-1,
8.431000e+0,3.94e-1,
8.432000e+0,3.94e-1,
8.433000e+0,3.94e-1,
8.434000e+0,3.94e-1,
8.435000e+0,3.94e-1,
8.436000e+0,3.94e-1,
8.437000e+0,3.96e-1,
8.438000e+0,3.96e-1,
8.439000e+0,3.94e-1,
8.440000e+0,3.94e-1,
8.441000e+0,3.94e-1,
8.442000e+0,3.94e-1,
8.443000e+0,3.94e-1,
8.444000e+0,3.94e-1,
8.445000e+0,3.96e-1,
8.446000e+0,3.96e-1,
8.447000e+0,3.96e-1,
8.448000e+0,3.96e-1,
8.449000e+0,3.96e-1,
8.450000e+0,3.96e-1,
8.451000e+0,3.94e-1,
8.452000e+0,3.94e-1,
8.453000e+0,3.96e-1,
8.454000e+0,3.96e-1,
8.455000e+0,3.96e-1,
8.456000e+0,3.96e-1,
8.457000e+0,3.96e-1,
8.458000e+0,3.96e-1,
8.459000e+0,3.96e-1,
8.460000e+0,3.96e-1,
8.461000e+0,3.94e-1,
8.462000e+0,3.94e-1,
8.463000e+0,3.96e-1,
8.464000e+0,3.96e-1,
8.465000e+0,3.98e-1,
8.466000e+0,3.98e-1,
8.467000e+0,3.96e-1,
8.468000e+0,3.96e-1,
8.469000e+0,3.94e-1,
8.470000e+0,3.94e-1,
8.471000e+0,3.96e-1,
8.472000e+0,3.96e-1,
8.473000e+0,3.96e-1,
8.474000e+0,3.96e-1,
8.475000e+0,3.96e-1,
8.476000e+0,3.96e-1,
8.477000e+0,3.96e-1,
8.478000e+0,3.96e-1,
8.479000e+0,3.96e-1,
8.480000e+0,3.96e-1,
8.481000e+0,3.98e-1,
8.482000e+0,3.98e-1,
8.483000e+0,3.96e-1,
8.484000e+0,3.96e-1,
8.485000e+0,3.96e-1,
8.486000e+0,3.96e-1,
8.487000e+0,3.96e-1,
8.488000e+0,3.96e-1,
8.489000e+0,3.96e-1,
8.490000e+0,3.96e-1,
8.491000e+0,3.98e-1,
8.492000e+0,3.98e-1,
8.493000e+0,3.96e-1,
8.494000e+0,3.96e-1,
8.495000e+0,3.98e-1,
8.496000e+0,3.98e-1,
8.497000e+0,3.98e-1,
8.498000e+0,3.98e-1,
8.499000e+0,3.96e-1,
8.500000e+0,3.96e-1,
8.501000e+0,3.96e-1,
8.502000e+0,3.96e-1,
8.503000e+0,3.96e-1,
8.504000e+0,3.96e-1,
8.505000e+0,3.96e-1,
8.506000e+0,3.96e-1,
8.507000e+0,3.96e-1,
8.508000e+0,3.96e-1,
8.509000e+0,3.96e-1,
8.510000e+0,3.96e-1,
8.511000e+0,3.98e-1,
8.512000e+0,3.98e-1,
8.513000e+0,3.96e-1,
8.514000e+0,3.96e-1,
8.515000e+0,3.98e-1,
8.516000e+0,3.98e-1,
8.517000e+0,3.96e-1,
8.518000e+0,3.96e-1,
8.519000e+0,3.96e-1,
8.520000e+0,3.96e-1,
8.521000e+0,3.98e-1,
8.522000e+0,3.98e-1,
8.523000e+0,3.96e-1,
8.524000e+0,3.96e-1,
8.525000e+0,3.96e-1,
8.526000e+0,3.96e-1,
8.527000e+0,3.98e-1,
8.528000e+0,3.98e-1,
8.529000e+0,3.98e-1,
8.530000e+0,3.98e-1,
8.531000e+0,3.98e-1,
8.532000e+0,3.98e-1,
8.533000e+0,3.98e-1,
8.534000e+0,3.98e-1,
8.535000e+0,3.98e-1,
8.536000e+0,3.98e-1,
8.537000e+0,3.98e-1,
8.538000e+0,3.98e-1,
8.539000e+0,3.98e-1,
8.540000e+0,3.98e-1,
8.541000e+0,3.98e-1,
8.542000e+0,3.98e-1,
8.543000e+0,3.98e-1,
8.544000e+0,3.98e-1,
8.545000e+0,3.98e-1,
8.546000e+0,3.98e-1,
8.547000e+0,3.98e-1,
8.548000e+0,3.98e-1,
8.549000e+0,3.96e-1,
8.550000e+0,3.96e-1,
8.551000e+0,3.98e-1,
8.552000e+0,3.98e-1,
8.553000e+0,4.00e-1,
8.554000e+0,4.00e-1,
8.555000e+0,3.98e-1,
8.556000e+0,3.98e-1,
8.557000e+0,3.96e-1,
8.558000e+0,3.96e-1,
8.559000e+0,4.00e-1,
8.560000e+0,4.00e-1,
8.561000e+0,4.00e-1,
8.562000e+0,4.00e-1,
8.563000e+0,3.98e-1,
8.564000e+0,3.98e-1,
8.565000e+0,4.00e-1,
8.566000e+0,4.00e-1,
8.567000e+0,4.00e-1,
8.568000e+0,4.00e-1,
8.569000e+0,3.98e-1,
8.570000e+0,3.98e-1,
8.571000e+0,3.96e-1,
8.572000e+0,3.96e-1,
8.573000e+0,3.96e-1,
8.574000e+0,3.96e-1,
8.575000e+0,4.00e-1,
8.576000e+0,4.00e-1,
8.577000e+0,4.00e-1,
8.578000e+0,4.00e-1,
8.579000e+0,4.00e-1,
8.580000e+0,4.00e-1,
8.581000e+0,3.98e-1,
8.582000e+0,3.98e-1,
8.583000e+0,3.96e-1,
8.584000e+0,3.96e-1,
8.585000e+0,4.00e-1,
8.586000e+0,4.00e-1,
8.587000e+0,4.00e-1,
8.588000e+0,4.00e-1,
8.589000e+0,4.00e-1,
8.590000e+0,4.00e-1,
8.591000e+0,3.98e-1,
8.592000e+0,3.98e-1,
8.593000e+0,3.98e-1,
8.594000e+0,3.98e-1,
8.595000e+0,4.00e-1,
8.596000e+0,4.00e-1,
8.597000e+0,4.00e-1,
8.598000e+0,4.00e-1,
8.599000e+0,4.00e-1,
8.600000e+0,4.00e-1,
8.601000e+0,4.00e-1,
8.602000e+0,4.00e-1,
8.603000e+0,4.00e-1,
8.604000e+0,4.00e-1,
8.605000e+0,4.00e-1,
8.606000e+0,4.00e-1,
8.607000e+0,4.00e-1,
8.608000e+0,4.00e-1,
8.609000e+0,4.00e-1,
8.610000e+0,4.00e-1,
8.611000e+0,4.00e-1,
8.612000e+0,4.00e-1,
8.613000e+0,4.00e-1,
8.614000e+0,4.00e-1,
8.615000e+0,4.00e-1,
8.616000e+0,4.00e-1,
8.617000e+0,4.00e-1,
8.618000e+0,4.00e-1,
8.619000e+0,4.00e-1,
8.620000e+0,4.00e-1,
8.621000e+0,4.00e-1,
8.622000e+0,4.00e-1,
8.623000e+0,4.00e-1,
8.624000e+0,4.00e-1,
8.625000e+0,4.00e-1,
8.626000e+0,4.00e-1,
8.627000e+0,4.00e-1,
8.628000e+0,4.00e-1,
8.629000e+0,4.00e-1,
8.630000e+0,4.00e-1,
8.631000e+0,3.98e-1,
8.632000e+0,3.98e-1,
8.633000e+0,4.00e-1,
8.634000e+0,4.00e-1,
8.635000e+0,4.00e-1,
8.636000e+0,4.00e-1,
8.637000e+0,4.00e-1,
8.638000e+0,4.00e-1,
8.639000e+0,4.00e-1,
8.640000e+0,4.00e-1,
8.641000e+0,4.00e-1,
8.642000e+0,4.00e-1,
8.643000e+0,4.02e-1,
8.644000e+0,4.02e-1,
8.645000e+0,3.98e-1,
8.646000e+0,3.98e-1,
8.647000e+0,4.02e-1,
8.648000e+0,4.02e-1,
8.649000e+0,4.00e-1,
8.650000e+0,4.00e-1,
8.651000e+0,4.00e-1,
8.652000e+0,4.00e-1,
8.653000e+0,4.00e-1,
8.654000e+0,4.00e-1,
8.655000e+0,4.00e-1,
8.656000e+0,4.00e-1,
8.657000e+0,3.98e-1,
8.658000e+0,3.98e-1,
8.659000e+0,3.98e-1,
8.660000e+0,3.98e-1,
8.661000e+0,4.02e-1,
8.662000e+0,4.02e-1,
8.663000e+0,4.00e-1,
8.664000e+0,4.00e-1,
8.665000e+0,4.02e-1,
8.666000e+0,4.02e-1,
8.667000e+0,4.02e-1,
8.668000e+0,4.02e-1,
8.669000e+0,4.00e-1,
8.670000e+0,4.00e-1,
8.671000e+0,4.02e-1,
8.672000e+0,4.02e-1,
8.673000e+0,4.02e-1,
8.674000e+0,4.02e-1,
8.675000e+0,4.00e-1,
8.676000e+0,4.00e-1,
8.677000e+0,4.02e-1,
8.678000e+0,4.02e-1,
8.679000e+0,4.00e-1,
8.680000e+0,4.00e-1,
8.681000e+0,4.02e-1,
8.682000e+0,4.02e-1,
8.683000e+0,4.02e-1,
8.684000e+0,4.02e-1,
8.685000e+0,4.00e-1,
8.686000e+0,4.00e-1,
8.687000e+0,3.98e-1,
8.688000e+0,3.98e-1,
8.689000e+0,4.02e-1,
8.690000e+0,4.02e-1,
8.691000e+0,4.04e-1,
8.692000e+0,4.04e-1,
8.693000e+0,4.00e-1,
8.694000e+0,4.00e-1,
8.695000e+0,4.04e-1,
8.696000e+0,4.04e-1,
8.697000e+0,4.00e-1,
8.698000e+0,4.00e-1,
8.699000e+0,4.02e-1,
8.700000e+0,4.02e-1,
8.701000e+0,4.00e-1,
8.702000e+0,4.00e-1,
8.703000e+0,4.04e-1,
8.704000e+0,4.04e-1,
8.705000e+0,4.00e-1,
8.706000e+0,4.00e-1,
8.707000e+0,4.02e-1,
8.708000e+0,4.02e-1,
8.709000e+0,4.02e-1,
8.710000e+0,4.02e-1,
8.711000e+0,4.04e-1,
8.712000e+0,4.04e-1,
8.713000e+0,4.02e-1,
8.714000e+0,4.02e-1,
8.715000e+0,4.02e-1,
8.716000e+0,4.02e-1,
8.717000e+0,4.02e-1,
8.718000e+0,4.02e-1,
8.719000e+0,4.02e-1,
8.720000e+0,4.02e-1,
8.721000e+0,4.02e-1,
8.722000e+0,4.02e-1,
8.723000e+0,4.04e-1,
8.724000e+0,4.04e-1,
8.725000e+0,4.02e-1,
8.726000e+0,4.02e-1,
8.727000e+0,4.02e-1,
8.728000e+0,4.02e-1,
8.729000e+0,4.02e-1,
8.730000e+0,4.02e-1,
8.731000e+0,4.04e-1,
8.732000e+0,4.04e-1,
8.733000e+0,4.02e-1,
8.734000e+0,4.02e-1,
8.735000e+0,4.02e-1,
8.736000e+0,4.02e-1,
8.737000e+0,4.02e-1,
8.738000e+0,4.02e-1,
8.739000e+0,4.02e-1,
8.740000e+0,4.02e-1,
8.741000e+0,4.04e-1,
8.742000e+0,4.04e-1,
8.743000e+0,4.02e-1,
8.744000e+0,4.02e-1,
8.745000e+0,4.04e-1,
8.746000e+0,4.04e-1,
8.747000e+0,4.04e-1,
8.748000e+0,4.04e-1,
8.749000e+0,4.02e-1,
8.750000e+0,4.02e-1,
8.751000e+0,4.02e-1,
8.752000e+0,4.02e-1,
8.753000e+0,4.02e-1,
8.754000e+0,4.02e-1,
8.755000e+0,4.02e-1,
8.756000e+0,4.02e-1,
8.757000e+0,4.04e-1,
8.758000e+0,4.04e-1,
8.759000e+0,4.02e-1,
8.760000e+0,4.02e-1,
8.761000e+0,4.04e-1,
8.762000e+0,4.04e-1,
8.763000e+0,4.04e-1,
8.764000e+0,4.04e-1,
8.765000e+0,4.04e-1,
8.766000e+0,4.04e-1,
8.767000e+0,4.02e-1,
8.768000e+0,4.02e-1,
8.769000e+0,4.04e-1,
8.770000e+0,4.04e-1,
8.771000e+0,4.04e-1,
8.772000e+0,4.04e-1,
8.773000e+0,4.04e-1,
8.774000e+0,4.04e-1,
8.775000e+0,4.04e-1,
8.776000e+0,4.04e-1,
8.777000e+0,4.04e-1,
8.778000e+0,4.04e-1,
8.779000e+0,4.04e-1,
8.780000e+0,4.04e-1,
8.781000e+0,4.04e-1,
8.782000e+0,4.04e-1,
8.783000e+0,4.02e-1,
8.784000e+0,4.02e-1,
8.785000e+0,4.04e-1,
8.786000e+0,4.04e-1,
8.787000e+0,4.04e-1,
8.788000e+0,4.04e-1,
8.789000e+0,4.02e-1,
8.790000e+0,4.02e-1,
8.791000e+0,4.02e-1,
8.792000e+0,4.02e-1,
8.793000e+0,4.02e-1,
8.794000e+0,4.02e-1,
8.795000e+0,4.04e-1,
8.796000e+0,4.04e-1,
8.797000e+0,4.04e-1,
8.798000e+0,4.04e-1,
8.799000e+0,4.04e-1,
8.800000e+0,4.04e-1,
8.801000e+0,4.04e-1,
8.802000e+0,4.04e-1,
8.803000e+0,4.04e-1,
8.804000e+0,4.04e-1,
8.805000e+0,4.04e-1,
8.806000e+0,4.04e-1,
8.807000e+0,4.04e-1,
8.808000e+0,4.04e-1,
8.809000e+0,4.04e-1,
8.810000e+0,4.04e-1,
8.811000e+0,4.02e-1,
8.812000e+0,4.02e-1,
8.813000e+0,4.04e-1,
8.814000e+0,4.04e-1,
8.815000e+0,4.00e-1,
8.816000e+0,4.00e-1,
8.817000e+0,4.02e-1,
8.818000e+0,4.02e-1,
8.819000e+0,4.04e-1,
8.820000e+0,4.04e-1,
8.821000e+0,4.04e-1,
8.822000e+0,4.04e-1,
8.823000e+0,4.02e-1,
8.824000e+0,4.02e-1,
8.825000e+0,4.06e-1,
8.826000e+0,4.06e-1,
8.827000e+0,4.04e-1,
8.828000e+0,4.04e-1,
8.829000e+0,4.04e-1,
8.830000e+0,4.04e-1,
8.831000e+0,4.04e-1,
8.832000e+0,4.04e-1,
8.833000e+0,4.04e-1,
8.834000e+0,4.04e-1,
8.835000e+0,4.04e-1,
8.836000e+0,4.04e-1,
8.837000e+0,4.04e-1,
8.838000e+0,4.04e-1,
8.839000e+0,4.04e-1,
8.840000e+0,4.04e-1,
8.841000e+0,4.04e-1,
8.842000e+0,4.04e-1,
8.843000e+0,4.04e-1,
8.844000e+0,4.04e-1,
8.845000e+0,4.06e-1,
8.846000e+0,4.06e-1,
8.847000e+0,4.08e-1,
8.848000e+0,4.08e-1,
8.849000e+0,4.04e-1,
8.850000e+0,4.04e-1,
8.851000e+0,4.06e-1,
8.852000e+0,4.06e-1,
8.853000e+0,4.06e-1,
8.854000e+0,4.06e-1,
8.855000e+0,4.06e-1,
8.856000e+0,4.06e-1,
8.857000e+0,4.04e-1,
8.858000e+0,4.04e-1,
8.859000e+0,4.04e-1,
8.860000e+0,4.04e-1,
8.861000e+0,4.08e-1,
8.862000e+0,4.08e-1,
8.863000e+0,4.06e-1,
8.864000e+0,4.06e-1,
8.865000e+0,4.04e-1,
8.866000e+0,4.04e-1,
8.867000e+0,4.04e-1,
8.868000e+0,4.04e-1,
8.869000e+0,4.04e-1,
8.870000e+0,4.04e-1,
8.871000e+0,4.04e-1,
8.872000e+0,4.04e-1,
8.873000e+0,4.04e-1,
8.874000e+0,4.04e-1,
8.875000e+0,4.08e-1,
8.876000e+0,4.08e-1,
8.877000e+0,4.06e-1,
8.878000e+0,4.06e-1,
8.879000e+0,4.08e-1,
8.880000e+0,4.08e-1,
8.881000e+0,4.06e-1,
8.882000e+0,4.06e-1,
8.883000e+0,4.06e-1,
8.884000e+0,4.06e-1,
8.885000e+0,4.06e-1,
8.886000e+0,4.06e-1,
8.887000e+0,4.08e-1,
8.888000e+0,4.08e-1,
8.889000e+0,4.06e-1,
8.890000e+0,4.06e-1,
8.891000e+0,4.06e-1,
8.892000e+0,4.06e-1,
8.893000e+0,4.08e-1,
8.894000e+0,4.08e-1,
8.895000e+0,4.06e-1,
8.896000e+0,4.06e-1,
8.897000e+0,4.06e-1,
8.898000e+0,4.06e-1,
8.899000e+0,4.06e-1,
8.900000e+0,4.06e-1,
8.901000e+0,4.08e-1,
8.902000e+0,4.08e-1,
8.903000e+0,4.08e-1,
8.904000e+0,4.08e-1,
8.905000e+0,4.04e-1,
8.906000e+0,4.04e-1,
8.907000e+0,4.06e-1,
8.908000e+0,4.06e-1,
8.909000e+0,4.08e-1,
8.910000e+0,4.08e-1,
8.911000e+0,4.06e-1,
8.912000e+0,4.06e-1,
8.913000e+0,4.08e-1,
8.914000e+0,4.08e-1,
8.915000e+0,4.08e-1,
8.916000e+0,4.08e-1,
8.917000e+0,4.06e-1,
8.918000e+0,4.06e-1,
8.919000e+0,4.08e-1,
8.920000e+0,4.08e-1,
8.921000e+0,4.04e-1,
8.922000e+0,4.04e-1,
8.923000e+0,4.06e-1,
8.924000e+0,4.06e-1,
8.925000e+0,4.06e-1,
8.926000e+0,4.06e-1,
8.927000e+0,4.06e-1,
8.928000e+0,4.06e-1,
8.929000e+0,4.06e-1,
8.930000e+0,4.06e-1,
8.931000e+0,4.08e-1,
8.932000e+0,4.08e-1,
8.933000e+0,4.08e-1,
8.934000e+0,4.08e-1,
8.935000e+0,4.06e-1,
8.936000e+0,4.06e-1,
8.937000e+0,4.06e-1,
8.938000e+0,4.06e-1,
8.939000e+0,4.04e-1,
8.940000e+0,4.04e-1,
8.941000e+0,4.06e-1,
8.942000e+0,4.06e-1,
8.943000e+0,4.06e-1,
8.944000e+0,4.06e-1,
8.945000e+0,4.06e-1,
8.946000e+0,4.06e-1,
8.947000e+0,4.06e-1,
8.948000e+0,4.06e-1,
8.949000e+0,4.06e-1,
8.950000e+0,4.06e-1,
8.951000e+0,4.06e-1,
8.952000e+0,4.06e-1,
8.953000e+0,4.06e-1,
8.954000e+0,4.06e-1,
8.955000e+0,4.06e-1,
8.956000e+0,4.06e-1,
8.957000e+0,4.08e-1,
8.958000e+0,4.08e-1,
8.959000e+0,4.06e-1,
8.960000e+0,4.06e-1,
8.961000e+0,4.08e-1,
8.962000e+0,4.08e-1,
8.963000e+0,4.08e-1,
8.964000e+0,4.08e-1,
8.965000e+0,4.06e-1,
8.966000e+0,4.06e-1,
8.967000e+0,4.08e-1,
8.968000e+0,4.08e-1,
8.969000e+0,4.08e-1,
8.970000e+0,4.08e-1,
8.971000e+0,4.10e-1,
8.972000e+0,4.10e-1,
8.973000e+0,4.08e-1,
8.974000e+0,4.08e-1,
8.975000e+0,4.08e-1,
8.976000e+0,4.08e-1,
8.977000e+0,4.06e-1,
8.978000e+0,4.06e-1,
8.979000e+0,4.08e-1,
8.980000e+0,4.08e-1,
8.981000e+0,4.08e-1,
8.982000e+0,4.08e-1,
8.983000e+0,4.08e-1,
8.984000e+0,4.08e-1,
8.985000e+0,4.06e-1,
8.986000e+0,4.06e-1,
8.987000e+0,4.06e-1,
8.988000e+0,4.06e-1,
8.989000e+0,4.04e-1,
8.990000e+0,4.04e-1,
8.991000e+0,4.04e-1,
8.992000e+0,4.04e-1,
8.993000e+0,4.04e-1,
8.994000e+0,4.04e-1,
8.995000e+0,4.04e-1,
8.996000e+0,4.04e-1,
8.997000e+0,4.04e-1,
8.998000e+0,4.04e-1,
8.999000e+0,4.06e-1,
9.000000e+0,4.06e-1,
9.001000e+0,4.04e-1,
9.002000e+0,4.04e-1,
9.003000e+0,4.02e-1,
9.004000e+0,4.02e-1,
9.005000e+0,4.04e-1,
9.006000e+0,4.04e-1,
9.007000e+0,4.04e-1,
9.008000e+0,4.04e-1,
9.009000e+0,4.04e-1,
9.010000e+0,4.04e-1,
9.011000e+0,4.00e-1,
9.012000e+0,4.00e-1,
9.013000e+0,4.02e-1,
9.014000e+0,4.02e-1,
9.015000e+0,4.00e-1,
9.016000e+0,4.00e-1,
9.017000e+0,4.00e-1,
9.018000e+0,4.00e-1,
9.019000e+0,4.00e-1,
9.020000e+0,4.00e-1,
9.021000e+0,4.00e-1,
9.022000e+0,4.00e-1,
9.023000e+0,3.98e-1,
9.024000e+0,3.98e-1,
9.025000e+0,3.98e-1,
9.026000e+0,3.98e-1,
9.027000e+0,3.98e-1,
9.028000e+0,3.98e-1,
9.029000e+0,3.94e-1,
9.030000e+0,3.94e-1,
9.031000e+0,3.94e-1,
9.032000e+0,3.94e-1,
9.033000e+0,3.94e-1,
9.034000e+0,3.94e-1,
9.035000e+0,3.94e-1,
9.036000e+0,3.94e-1,
9.037000e+0,3.94e-1,
9.038000e+0,3.94e-1,
9.039000e+0,3.92e-1,
9.040000e+0,3.92e-1,
9.041000e+0,3.92e-1,
9.042000e+0,3.92e-1,
9.043000e+0,3.92e-1,
9.044000e+0,3.92e-1,
9.045000e+0,3.88e-1,
9.046000e+0,3.88e-1,
9.047000e+0,3.90e-1,
9.048000e+0,3.90e-1,
9.049000e+0,3.88e-1,
9.050000e+0,3.88e-1,
9.051000e+0,3.88e-1,
9.052000e+0,3.88e-1,
9.053000e+0,3.86e-1,
9.054000e+0,3.86e-1,
9.055000e+0,3.86e-1,
9.056000e+0,3.86e-1,
9.057000e+0,3.84e-1,
9.058000e+0,3.84e-1,
9.059000e+0,3.82e-1,
9.060000e+0,3.82e-1,
9.061000e+0,3.82e-1,
9.062000e+0,3.82e-1,
9.063000e+0,3.82e-1,
9.064000e+0,3.82e-1,
9.065000e+0,3.82e-1,
9.066000e+0,3.82e-1,
9.067000e+0,3.80e-1,
9.068000e+0,3.80e-1,
9.069000e+0,3.78e-1,
9.070000e+0,3.78e-1,
9.071000e+0,3.80e-1,
9.072000e+0,3.80e-1,
9.073000e+0,3.80e-1,
9.074000e+0,3.80e-1,
9.075000e+0,3.80e-1,
9.076000e+0,3.80e-1,
9.077000e+0,3.78e-1,
9.078000e+0,3.78e-1,
9.079000e+0,3.82e-1,
9.080000e+0,3.82e-1,
9.081000e+0,3.82e-1,
9.082000e+0,3.82e-1,
9.083000e+0,3.84e-1,
9.084000e+0,3.84e-1,
9.085000e+0,3.84e-1,
9.086000e+0,3.84e-1,
9.087000e+0,3.80e-1,
9.088000e+0,3.80e-1,
9.089000e+0,3.80e-1,
9.090000e+0,3.80e-1,
9.091000e+0,3.78e-1,
9.092000e+0,3.78e-1,
9.093000e+0,3.78e-1,
9.094000e+0,3.78e-1,
9.095000e+0,3.80e-1,
9.096000e+0,3.80e-1,
9.097000e+0,3.80e-1,
9.098000e+0,3.80e-1,
9.099000e+0,3.82e-1,
9.100000e+0,3.82e-1,
9.101000e+0,3.84e-1,
9.102000e+0,3.84e-1,
9.103000e+0,3.82e-1,
9.104000e+0,3.82e-1,
9.105000e+0,3.80e-1,
9.106000e+0,3.80e-1,
9.107000e+0,3.80e-1,
9.108000e+0,3.80e-1,
9.109000e+0,3.78e-1,
9.110000e+0,3.78e-1,
9.111000e+0,3.80e-1,
9.112000e+0,3.80e-1,
9.113000e+0,3.78e-1,
9.114000e+0,3.78e-1,
9.115000e+0,3.78e-1,
9.116000e+0,3.78e-1,
9.117000e+0,3.80e-1,
9.118000e+0,3.80e-1,
9.119000e+0,3.78e-1,
9.120000e+0,3.78e-1,
9.121000e+0,3.78e-1,
9.122000e+0,3.78e-1,
9.123000e+0,3.74e-1,
9.124000e+0,3.74e-1,
9.125000e+0,3.72e-1,
9.126000e+0,3.72e-1,
9.127000e+0,3.74e-1,
9.128000e+0,3.74e-1,
9.129000e+0,3.76e-1,
9.130000e+0,3.76e-1,
9.131000e+0,3.76e-1,
9.132000e+0,3.76e-1,
9.133000e+0,3.78e-1,
9.134000e+0,3.78e-1,
9.135000e+0,3.78e-1,
9.136000e+0,3.78e-1,
9.137000e+0,3.78e-1,
9.138000e+0,3.78e-1,
9.139000e+0,3.78e-1,
9.140000e+0,3.78e-1,
9.141000e+0,3.78e-1,
9.142000e+0,3.78e-1,
9.143000e+0,3.78e-1,
9.144000e+0,3.78e-1,
9.145000e+0,3.78e-1,
9.146000e+0,3.78e-1,
9.147000e+0,3.82e-1,
9.148000e+0,3.82e-1,
9.149000e+0,3.80e-1,
9.150000e+0,3.80e-1,
9.151000e+0,3.80e-1,
9.152000e+0,3.80e-1,
9.153000e+0,3.82e-1,
9.154000e+0,3.82e-1,
9.155000e+0,3.84e-1,
9.156000e+0,3.84e-1,
9.157000e+0,3.84e-1,
9.158000e+0,3.84e-1,
9.159000e+0,3.84e-1,
9.160000e+0,3.84e-1,
9.161000e+0,3.88e-1,
9.162000e+0,3.88e-1,
9.163000e+0,3.88e-1,
9.164000e+0,3.88e-1,
9.165000e+0,3.88e-1,
9.166000e+0,3.88e-1,
9.167000e+0,3.92e-1,
9.168000e+0,3.92e-1,
9.169000e+0,3.90e-1,
9.170000e+0,3.90e-1,
9.171000e+0,3.92e-1,
9.172000e+0,3.92e-1,
9.173000e+0,3.94e-1,
9.174000e+0,3.94e-1,
9.175000e+0,3.96e-1,
9.176000e+0,3.96e-1,
9.177000e+0,3.96e-1,
9.178000e+0,3.96e-1,
9.179000e+0,3.96e-1,
9.180000e+0,3.96e-1,
9.181000e+0,3.96e-1,
9.182000e+0,3.96e-1,
9.183000e+0,3.96e-1,
9.184000e+0,3.96e-1,
9.185000e+0,3.98e-1,
9.186000e+0,3.98e-1,
9.187000e+0,3.98e-1,
9.188000e+0,3.98e-1,
9.189000e+0,4.00e-1,
9.190000e+0,4.00e-1,
9.191000e+0,4.02e-1,
9.192000e+0,4.02e-1,
9.193000e+0,4.04e-1,
9.194000e+0,4.04e-1,
9.195000e+0,4.04e-1,
9.196000e+0,4.04e-1,
9.197000e+0,4.04e-1,
9.198000e+0,4.04e-1,
9.199000e+0,4.04e-1,
9.200000e+0,4.04e-1,
9.201000e+0,4.04e-1,
9.202000e+0,4.04e-1,
9.203000e+0,4.08e-1,
9.204000e+0,4.08e-1,
9.205000e+0,4.06e-1,
9.206000e+0,4.06e-1,
9.207000e+0,4.08e-1,
9.208000e+0,4.08e-1,
9.209000e+0,4.06e-1,
9.210000e+0,4.06e-1,
9.211000e+0,4.08e-1,
9.212000e+0,4.08e-1,
9.213000e+0,4.10e-1,
9.214000e+0,4.10e-1,
9.215000e+0,4.08e-1,
9.216000e+0,4.08e-1,
9.217000e+0,4.10e-1,
9.218000e+0,4.10e-1,
9.219000e+0,4.08e-1,
9.220000e+0,4.08e-1,
9.221000e+0,4.12e-1,
9.222000e+0,4.12e-1,
9.223000e+0,4.12e-1,
9.224000e+0,4.12e-1,
9.225000e+0,4.12e-1,
9.226000e+0,4.12e-1,
9.227000e+0,4.10e-1,
9.228000e+0,4.10e-1,
9.229000e+0,4.12e-1,
